timestamp,excitement,frustration,meditation,engagementBoredom,blink,clench,laugh,smile,eyebrow,furrowBrow,lookLeft,lookRight,smirkLeft,smirkRight,winkLeft,winkRight,eeg0,eeg1,eeg2,eeg3,eeg4,eeg5,eeg6,eeg7,eeg8,eeg9,eeg10,eeg11,eeg12,eeg13,eeg14,eeg15,eeg16
3464.61,0.6820231,0.5310676,0.33333334,0.5522388,0,0.0,0.0,0.0,0.0154892,0.0,0,0,0.0,0.0,0,0,118.0,0.0,8033.0,4670.256410256411,3935.3846153846157,4516.923076923077,4451.794871794872,4319.48717948718,4634.358974358975,4323.076923076924,5494.3589743589755,4639.48717948718,5449.2307692307695,5516.410256410257,4468.205128205129,4676.410256410257,4564.615384615385
3464.8604,0.6820231,0.5310676,0.33333334,0.5522388,0,0.15869963,0.0,0.0,0.0,0.0,0,0,0.0,0.0,0,0,21.0,0.0,0.0,4716.410256410257,3934.8717948717954,4545.128205128206,4448.205128205129,4310.256410256411,4627.6923076923085,4367.179487179487,5358.974358974359,4473.846153846154,5243.589743589744,5333.333333333334,4433.846153846154,4533.333333333334,4602.051282051282
3465.1106,0.6742216,0.5310676,0.33333334,0.5522388,0,0.1530307,0.0,0.0,0.0,0.0,0,0,0.0,0.0,0,0,53.0,0.0,0.0,4696.923076923077,3923.076923076924,4530.256410256411,4445.128205128206,4303.589743589744,4617.948717948719,4386.153846153847,5132.820512820514,4295.8974358974365,4984.615384615386,5127.6923076923085,4387.179487179487,4383.589743589744,4502.564102564103
3465.3608,0.6742216,0.5310676,0.33333334,0.5522388,0,0.0,0.34835038,0.0,0.0,0.0,0,0,0.0,0.0,0,0,85.0,0.0,773.0,4742.564102564103,3924.1025641025644,4545.641025641026,4453.846153846154,4309.2307692307695,4625.128205128206,4407.179487179487,5242.564102564103,4378.461538461539,5059.487179487181,5247.6923076923085,4405.641025641026,4445.128205128206,4548.205128205129
3465.611,0.6547008,0.5310676,0.33333334,0.5522388,0,0.0,0.24684693,0.0,0.0,0.0,0,0,0.0,0.0,0,0,117.0,0.0,773.0,4754.871794871796,3936.9230769230776,4563.076923076924,4459.48717948718,4324.102564102564,4642.051282051282,4435.8974358974365,5358.461538461539,4393.333333333334,5148.205128205129,5374.871794871796,4426.153846153847,4468.205128205129,4633.846153846154
3465.8613,0.6547008,0.5310676,0.33333334,0.5522388,0,0.0,0.34683445,0.0,0.0,0.0,0,0,0.0,0.0,0,0,20.0,0.0,0.0,4816.923076923077,3947.1794871794878,4585.128205128206,4471.794871794872,4335.8974358974365,4650.256410256411,4467.6923076923085,5346.666666666667,4343.076923076924,5058.461538461539,5298.461538461539,4414.358974358975,4427.6923076923085,4689.2307692307695
3466.1116,0.7861367,0.5310676,0.33333334,0.5522388,0,0.0,0.25196138,0.0,0.0,0.0,0,0,0.0,0.0,0,0,52.0,0.0,0.0,4784.102564102564,3935.3846153846157,4541.025641025642,4458.461538461539,4310.256410256411,4615.384615384616,4448.205128205129,4528.717948717949,3959.48717948718,4386.666666666667,4560.512820512821,4281.025641025642,3984.1025641025644,4673.333333333334
3466.3618,0.7861367,0.5310676,0.33333334,0.5522388,0,0.0,0.22471097,0.0,0.0,0.0,0,0,0.0,0.0,0,0,84.0,0.0,3224.0,4706.153846153847,3897.435897435898,4501.025641025642,4445.128205128206,4233.333333333334,4530.256410256411,4457.435897435898,4705.641025641026,4169.74358974359,4614.871794871796,4817.435897435898,4331.794871794872,4160.512820512821,4514.871794871796
3466.612,0.88466436,0.5310676,0.33333334,0.5522388,0,0.0,0.0,0.0,0.011066351,0.0,0,0,0.0,0.0,0,0,116.0,0.0,3224.0,4597.948717948719,3878.9743589743593,4432.820512820514,4425.128205128206,4158.461538461539,4457.948717948719,4429.743589743591,4144.615384615385,3938.461538461539,4153.333333333334,4196.410256410257,4216.410256410257,3909.7435897435903,4292.307692307693
3466.862,0.88466436,0.5310676,0.33333334,0.5522388,0,0.0,0.0,0.0,0.0029050456,0.0,0,0,0.0,0.0,0,0,19.0,0.0,0.0,4580.000000000001,3872.820512820513,4419.48717948718,4408.717948717949,4133.846153846154,4440.000000000001,4411.282051282052,3869.2307692307695,3832.820512820513,3957.435897435898,3852.820512820513,4159.48717948718,3784.615384615385,4252.820512820514
3467.1123,0.96583545,0.5310676,0.33333334,0.5522388,0,0.0,0.0,0.0,0.0061400756,0.0,0,0,0.0,0.0,0,0,51.0,0.0,0.0,4545.641025641026,3885.1282051282055,4414.871794871796,4412.820512820514,4143.589743589744,4452.307692307693,4410.256410256411,3469.2307692307695,3797.435897435898,3753.8461538461543,3576.410256410257,4122.051282051282,3669.7435897435903,4213.333333333334
3467.3625,0.96583545,0.5310676,0.33333334,0.5522388,0,0.0,0.0,0.0,0.004207071,0.0,0,0,0.0,0.0,0,0,83.0,0.0,443.0,4582.564102564103,3902.564102564103,4440.000000000001,4419.48717948718,4162.051282051282,4467.6923076923085,4441.025641025642,3529.7435897435903,3902.564102564103,3729.7435897435903,3647.1794871794878,4135.8974358974365,3785.6410256410263,4288.717948717949
3467.6128,0.9710053,0.5310676,0.33333334,0.5522388,0,0.0,0.0,0.0,0.004402476,0.0,0,0,0.0,0.0,0,0,115.0,0.0,443.0,4670.769230769231,3905.1282051282055,4486.666666666667,4416.923076923077,4158.974358974359,4465.641025641026,4492.307692307693,4057.435897435898,4170.256410256411,4139.48717948718,4072.820512820513,4225.641025641026,4073.8461538461543,4456.923076923077
3467.863,0.9710053,0.5310676,0.33333334,0.5522388,0,0.0,0.0,0.0,0.0122175375,0.0,0,0,0.0,0.0,0,0,18.0,0.0,0.0,4675.8974358974365,3897.9487179487182,4462.564102564103,4410.769230769231,4122.051282051282,4424.615384615385,4448.717948717949,4005.6410256410263,4201.025641025642,4111.282051282052,3993.8461538461543,4221.025641025642,4060.0000000000005,4574.358974358975
3468.1445,0.9036382,0.5310676,0.33333334,0.5522388,0,0.0,0.0,0.0,0.008570323,0.0,0,0,0.0,0.0,0,0,54.0,0.0,0.0,4527.6923076923085,3903.589743589744,4342.051282051282,4394.871794871796,4054.8717948717954,4329.2307692307695,4349.743589743591,3404.1025641025644,3918.9743589743593,3763.076923076924,3405.1282051282055,4111.794871794872,3792.307692307693,4226.666666666667
3468.3635,0.9036382,0.5310676,0.33333334,0.5522388,0,0.0,0.0,0.0,0.005232794,0.0,0,0,0.0,0.0,0,0,82.0,0.0,8032.0,4344.615384615385,3908.717948717949,4259.48717948718,4378.974358974359,4037.9487179487182,4309.2307692307695,4284.102564102564,2741.0256410256416,3595.8974358974365,3208.2051282051284,2846.666666666667,3995.8974358974365,3431.794871794872,4178.461538461539
3468.6138,0.93605554,0.5310676,0.33333334,0.5522388,0,0.0,0.0,0.0,0.010339534,0.0,0,0,0.0,0.0,0,0,114.0,0.0,8032.0,4300.512820512821,3919.48717948718,4233.333333333334,4382.564102564103,4109.2307692307695,4401.538461538462,4242.564102564103,3057.9487179487182,3936.9230769230776,3576.410256410257,3098.461538461539,4063.076923076924,3746.1538461538466,4220.512820512821
3468.8638,0.93605554,0.5310676,0.33333334,0.5522388,0,0.0,0.0,0.0,0.018249841,0.0,0,0,0.0,0.0,0,1,17.0,0.0,0.0,4281.025641025642,3920.0000000000005,4228.717948717949,4386.153846153847,4146.153846153847,4449.743589743591,4232.307692307693,3488.717948717949,4155.384615384616,3867.1794871794878,3361.538461538462,4117.435897435898,3975.3846153846157,4270.256410256411
3469.114,0.9677275,0.5310676,0.33333334,0.5522388,0,0.0,0.0,0.0,0.016540587,0.0,0,0,0.0,0.0,0,0,49.0,0.0,0.0,4256.410256410257,3913.8461538461543,4229.74358974359,4382.564102564103,4162.051282051282,4466.666666666667,4247.179487179487,3547.692307692308,4183.076923076924,3910.2564102564106,3447.1794871794878,4135.384615384616,4036.410256410257,4242.051282051282
3469.3643,0.9677275,0.5310676,0.33333334,0.5522388,0,0.0,0.0,0.0,0.008008022,0.0,0,0,0.0,0.0,0,0,81.0,0.0,844.0,4273.846153846154,3920.5128205128212,4251.794871794872,4403.076923076924,4145.128205128206,4468.205128205129,4250.769230769231,3850.2564102564106,4336.410256410257,4142.051282051282,3663.589743589744,4176.923076923077,4221.025641025642,4299.48717948718
3469.6145,0.99499446,0.5310676,0.33333334,0.5522388,0,0.0,0.0,0.0,0.0030526866,0.0,0,0,0.0,0.0,0,0,113.0,0.0,844.0,4258.974358974359,3930.7692307692314,4231.794871794872,4406.666666666667,4164.102564102564,4489.743589743591,4211.794871794872,3633.8461538461543,4136.923076923077,3953.333333333334,3585.6410256410263,4158.461538461539,4021.0256410256416,4257.435897435898
3469.8647,0.99499446,0.5310676,0.33333334,0.5522388,0,0.0,0.0,0.0,0.0021172136,0.0,0,0,0.0,0.0,0,0,16.0,0.0,0.0,4238.461538461539,3928.205128205129,4230.769230769231,4409.743589743591,4181.538461538462,4503.589743589744,4194.871794871796,3604.615384615385,4201.025641025642,3977.9487179487182,3501.538461538462,4140.512820512821,4094.8717948717954,4215.8974358974365
3470.115,1.0,0.5310676,0.33333334,0.5522388,0,0.0,0.0,0.0,0.008795635,0.0,0,0,0.0,0.0,0,0,48.0,0.0,0.0,4271.282051282052,3931.2820512820517,4270.256410256411,4422.564102564103,4213.846153846154,4528.205128205129,4236.923076923077,4017.9487179487182,4401.025641025642,4318.461538461539,3896.9230769230776,4209.2307692307695,4313.846153846154,4242.051282051282
3470.3652,1.0,0.5310676,0.33333334,0.5522388,0,0.0,0.0,0.0,0.0066997088,0.0,0,0,0.0,0.0,0,0,80.0,0.0,3443.0,4364.102564102564,3923.589743589744,4327.6923076923085,4421.538461538462,4229.74358974359,4552.820512820514,4274.871794871796,4401.025641025642,4523.076923076924,4590.769230769231,4303.589743589744,4275.8974358974365,4433.846153846154,4276.923076923077
3470.6155,1.0,0.5310676,0.33333334,0.5522388,0,0.0,0.0,0.0,0.002964982,0.0,0,0,0.0,0.0,0,0,112.0,0.0,3443.0,4437.435897435898,3929.7435897435903,4364.615384615385,4422.564102564103,4242.051282051282,4565.128205128206,4290.769230769231,4576.410256410257,4591.794871794872,4751.282051282052,4543.589743589744,4312.307692307693,4563.589743589744,4311.282051282052
3470.8657,1.0,0.5310676,0.33333334,0.5522388,0,0.0,0.0,0.0,0.004621459,0.0,0,0,0.0,0.0,0,0,15.0,0.0,449.0,4440.512820512821,3927.692307692308,4372.307692307693,4428.205128205129,4240.000000000001,4560.512820512821,4305.128205128206,4521.025641025642,4475.8974358974365,4612.820512820514,4477.435897435898,4296.923076923077,4429.2307692307695,4283.589743589744
3471.1157,0.91222847,0.5310676,0.33333334,0.5522388,0,0.0,0.0,0.0,0.007909791,0.0,0,0,0.0,0.0,0,1,47.0,0.0,0.0,4515.8974358974365,3928.205128205129,4423.076923076924,4429.743589743591,4236.923076923077,4558.461538461539,4316.410256410257,5122.564102564103,4745.128205128206,5069.2307692307695,5034.871794871796,4394.871794871796,4759.48717948718,4568.717948717949
3471.3972,0.91222847,0.5310676,0.33333334,0.5522388,0,0.0,0.0,0.0,0.008145676,0.0,0,0,0.0,0.0,0,0,83.0,0.0,448.0,4438.461538461539,3935.3846153846157,4397.435897435898,4441.538461538462,4253.846153846154,4571.282051282052,4326.153846153847,4707.179487179488,4388.717948717949,4697.435897435898,4786.153846153847,4340.000000000001,4417.435897435898,4537.948717948719
3471.6162,0.8255165,0.5310676,0.33333334,0.5522388,0,0.0,0.0,0.0,0.0096333455,0.0,0,0,0.0,0.0,0,0,111.0,0.0,448.0,4425.641025641026,3942.0512820512827,4396.410256410257,4447.179487179487,4271.282051282052,4581.025641025642,4306.153846153847,4594.871794871796,4361.538461538462,4628.205128205129,4659.48717948718,4310.769230769231,4369.743589743591,4557.435897435898
3471.8665,0.8255165,0.5310676,0.33333334,0.5522388,0,0.0,0.0,0.0,0.016805993,0.0,0,0,0.0,0.0,0,0,14.0,0.0,8033.0,4399.48717948718,3924.1025641025644,4357.435897435898,4443.589743589744,4265.128205128206,4572.307692307693,4263.589743589744,4099.48717948718,4058.9743589743593,4114.358974358975,4231.794871794872,4227.6923076923085,4057.435897435898,4590.256410256411
3472.1167,0.7146908,0.5310676,0.33333334,0.5522388,0,0.0,0.0,0.0,0.00961085,0.0,0,0,0.0,0.0,0,0,46.0,0.0,0.0,4374.358974358975,3940.0000000000005,4362.564102564103,4460.000000000001,4306.153846153847,4619.48717948718,4280.000000000001,4032.307692307693,4070.2564102564106,4035.3846153846157,4177.948717948719,4216.410256410257,4051.7948717948725,4592.820512820514
3472.367,0.7146908,0.5310676,0.33333334,0.5522388,0,0.0,0.0,0.0,0.0090215765,0.0,0,0,0.0,0.0,0,0,78.0,0.0,8033.0,4405.128205128206,3939.48717948718,4363.589743589744,4460.000000000001,4314.871794871796,4629.2307692307695,4292.307692307693,4061.0256410256416,4090.2564102564106,3996.410256410257,4168.205128205129,4218.461538461539,4060.0000000000005,4583.076923076924
3472.6172,0.7152414,0.5310676,0.33333334,0.5522388,0,0.0,0.0,0.0,0.009886838,0.0,0,0,0.0,0.0,0,0,110.0,0.0,8033.0,4456.410256410257,3949.2307692307695,4391.282051282052,4459.48717948718,4314.358974358975,4623.076923076924,4295.8974358974365,4163.589743589744,4159.48717948718,4093.8461538461543,4260.512820512821,4237.435897435898,4108.205128205129,4594.358974358975
3472.8674,0.7152414,0.5310676,0.33333334,0.5522388,0,0.0,0.0,0.0,0.012794173,0.0,0,0,0.0,0.0,0,0,13.0,0.0,702.0,4428.717948717949,3951.2820512820517,4385.128205128206,4458.461538461539,4304.615384615385,4611.794871794872,4318.461538461539,4063.589743589744,4081.538461538462,3971.2820512820517,4164.615384615385,4216.923076923077,4042.0512820512827,4546.666666666667
3473.1174,0.62937903,0.5310676,0.33333334,0.5522388,0,0.0,0.0,0.0,0.012714949,0.0,0,0,0.0,0.0,0,0,45.0,0.0,0.0,4452.820512820514,3956.410256410257,4398.974358974359,4463.589743589744,4306.666666666667,4604.615384615385,4313.333333333334,4101.025641025642,4087.1794871794878,3998.461538461539,4200.000000000001,4224.102564102564,4041.0256410256416,4525.641025641026
3473.3677,0.62937903,0.5310676,0.33333334,0.5522388,0,0.0,0.0,0.0,0.01901386,0.0,0,0,0.0,0.0,0,0,77.0,0.0,685.0,4449.2307692307695,3954.358974358975,4401.538461538462,4461.025641025642,4290.769230769231,4587.6923076923085,4307.6923076923085,4096.410256410257,4117.435897435898,4065.1282051282055,4182.564102564103,4227.179487179487,4066.666666666667,4533.333333333334
3473.618,0.6234599,0.5310676,0.33333334,0.5522388,0,0.0,0.6332403,0.0,0.0,0.0,0,0,0.0,0.0,0,0,109.0,0.0,685.0,4433.333333333334,3956.410256410257,4407.179487179487,4461.025641025642,4294.358974358975,4587.179487179488,4322.564102564103,4069.7435897435903,4062.0512820512827,3998.9743589743593,4150.769230769231,4222.051282051282,4003.589743589744,4493.846153846154
3473.8682,0.6234599,0.5310676,0.33333334,0.5522388,0,0.0,0.0,0.0,0.016197547,0.0,0,0,0.0,0.0,0,0,12.0,0.0,3052.0,4478.461538461539,3956.9230769230776,4420.000000000001,4462.051282051282,4291.794871794872,4590.256410256411,4327.6923076923085,4227.6923076923085,4214.871794871796,4212.307692307693,4252.307692307693,4248.717948717949,4157.435897435898,4506.153846153847
3474.1184,0.5538698,0.5310676,0.33333334,0.5522388,0,0.0,0.0,0.0,0.018473448,0.0,0,0,0.0,0.0,0,0,44.0,0.0,0.0,4497.435897435898,3946.1538461538466,4417.948717948719,4451.794871794872,4269.74358974359,4569.2307692307695,4330.769230769231,4138.974358974359,4095.8974358974365,4128.717948717949,4178.974358974359,4233.333333333334,4046.1538461538466,4478.461538461539
3474.3687,0.5538698,0.5310676,0.33333334,0.5522388,0,0.0,0.8380074,0.0,0.0,0.0,0,0,0.0,0.0,0,0,76.0,0.0,3010.0,4548.205128205129,3945.1282051282055,4446.666666666667,4454.358974358975,4261.025641025642,4563.076923076924,4368.205128205129,4294.871794871796,4174.871794871796,4246.666666666667,4288.717948717949,4251.282051282052,4143.076923076924,4476.923076923077
3474.619,0.4635507,0.5310676,0.33333334,0.5522388,0,0.0,0.87611055,0.0,0.0,0.0,0,0,0.0,0.0,0,0,108.0,0.0,3010.0,4553.846153846154,3938.461538461539,4434.358974358975,4447.179487179487,4254.358974358975,4554.358974358975,4368.717948717949,4137.948717948719,4084.615384615385,4151.794871794872,4168.717948717949,4230.256410256411,4024.1025641025644,4451.794871794872
3474.8691,0.4635507,0.5310676,0.33333334,0.5522388,0,0.0,0.8596804,0.0,0.0,0.0,0,0,0.0,0.0,0,0,11.0,0.0,471.0,4589.743589743591,3937.9487179487182,4469.2307692307695,4442.564102564103,4245.641025641026,4547.179487179488,4382.051282051282,4213.846153846154,4121.538461538462,4211.282051282052,4232.307692307693,4236.410256410257,4085.1282051282055,4482.051282051282
3475.1272,0.456707,0.5310676,0.33333334,0.5522388,0,0.0,0.0,0.0,0.017002657,0.0,0,0,0.0,0.0,0,0,43.0,0.0,0.0,4577.948717948719,3931.7948717948725,4461.025641025642,4439.48717948718,4249.74358974359,4538.974358974359,4358.461538461539,4107.179487179487,4079.48717948718,4177.435897435898,4129.2307692307695,4223.589743589744,4036.9230769230776,4467.179487179487
3475.3772,0.456707,0.5310676,0.33333334,0.5522388,0,0.0,0.0,0.0,0.00888747,0.0,0,0,0.0,0.0,0,0,75.0,0.0,471.0,4582.564102564103,3934.358974358975,4475.8974358974365,4437.435897435898,4247.179487179487,4543.076923076924,4362.051282051282,4177.948717948719,4163.076923076924,4257.948717948719,4175.384615384616,4228.717948717949,4114.871794871796,4455.8974358974365
3475.6274,0.5270596,0.5310676,0.33333334,0.5522388,0,0.0,0.0,0.0,0.017425675,0.0,0,0,0.0,0.0,0,0,107.0,0.0,471.0,4584.102564102564,3945.1282051282055,4475.8974358974365,4444.102564102564,4257.948717948719,4556.410256410257,4339.48717948718,4117.948717948719,4140.512820512821,4250.769230769231,4116.923076923077,4223.589743589744,4090.2564102564106,4422.564102564103
3475.8777,0.5270596,0.5310676,0.33333334,0.5522388,0,0.0,0.0,0.0,0.025700692,0.0,0,0,0.0,0.0,0,0,10.0,0.0,8033.0,4536.923076923077,3943.076923076924,4459.48717948718,4442.051282051282,4261.025641025642,4557.435897435898,4305.128205128206,4001.538461538462,4061.538461538462,4148.717948717949,4032.820512820513,4202.564102564103,4017.435897435898,4443.076923076924
3476.128,0.46175352,0.5310676,0.33333334,0.5522388,0,0.0,0.0,0.0,0.01638584,0.0,0,0,0.0,0.0,0,0,42.0,0.0,0.0,4520.512820512821,3943.076923076924,4448.205128205129,4443.076923076924,4254.871794871796,4554.358974358975,4265.641025641026,3939.48717948718,4097.435897435898,4145.641025641026,3970.2564102564106,4200.000000000001,4040.5128205128212,4454.358974358975
3476.3782,0.46175352,0.5310676,0.33333334,0.5522388,0,0.0,0.0,0.0,0.007858954,0.0,0,0,0.0,0.0,0,0,74.0,0.0,8033.0,4540.512820512821,3946.1538461538466,4472.820512820514,4450.769230769231,4265.641025641026,4562.051282051282,4311.282051282052,4389.2307692307695,4277.435897435898,4525.641025641026,4283.076923076924,4255.8974358974365,4220.512820512821,4564.615384615385
3476.6284,0.47424224,0.5310676,0.33333334,0.5522388,0,0.0,0.0,0.0,0.009226685,0.0,0,0,0.0,0.0,0,0,106.0,0.0,8033.0,4529.2307692307695,3938.461538461539,4456.410256410257,4449.2307692307695,4249.74358974359,4545.128205128206,4317.435897435898,4134.871794871796,4171.282051282052,4365.128205128206,4102.564102564103,4230.256410256411,4128.205128205129,4493.333333333334
3476.8787,0.47424224,0.5310676,0.33333334,0.5522388,0,0.0,0.0,0.0,0.010832616,0.0,0,0,0.0,0.0,0,0,9.0,0.0,5861.0,4515.384615384616,3917.435897435898,4437.948717948719,4429.743589743591,4221.538461538462,4513.846153846154,4324.102564102564,3809.7435897435903,4024.1025641025644,4070.2564102564106,3845.6410256410263,4181.025641025642,3972.820512820513,4445.641025641026
3477.129,0.46305743,0.5310676,0.33333334,0.5522388,0,0.0,0.0,0.0,0.010936633,0.0,0,0,0.0,0.0,0,0,41.0,0.0,0.0,4538.974358974359,3920.0000000000005,4447.179487179487,4428.717948717949,4221.538461538462,4514.358974358975,4366.666666666667,3992.820512820513,4137.948717948719,4308.205128205129,3964.615384615385,4204.615384615385,4074.358974358975,4401.025641025642
3477.379,0.46305743,0.5310676,0.33333334,0.5522388,0,0.0,0.0,0.0,0.024660798,0.0,0,0,0.0,0.0,0,0,73.0,0.0,5842.0,4513.333333333334,3914.358974358975,4441.025641025642,4428.205128205129,4229.74358974359,4527.179487179488,4399.48717948718,4053.8461538461543,4180.512820512821,4338.461538461539,3995.3846153846157,4216.410256410257,4108.717948717949,4375.8974358974365
3477.6292,0.3652823,0.5310676,0.33333334,0.5522388,0,0.0,0.0,0.0,0.026455387,0.0,0,0,0.0,0.0,0,0,105.0,0.0,680.0,4471.794871794872,3920.5128205128212,4440.512820512821,4434.358974358975,4240.000000000001,4538.974358974359,4406.666666666667,4059.48717948718,4173.846153846154,4376.923076923077,3991.2820512820517,4207.179487179487,4124.102564102564,4348.205128205129
3477.8794,0.3652823,0.5310676,0.33333334,0.5522388,0,0.0,0.0,0.0,0.017804395,0.0,0,0,0.0,0.0,0,0,8.0,0.0,8033.0,4467.179487179487,3920.0000000000005,4427.6923076923085,4431.794871794872,4230.256410256411,4528.205128205129,4452.820512820514,3977.435897435898,4145.641025641026,4279.48717948718,3903.076923076924,4189.74358974359,4078.9743589743593,4287.179487179487
3478.1296,0.31962457,0.5310676,0.33333334,0.5522388,0,0.0,0.0,0.0,0.0059105977,0.0,0,0,0.0,0.0,0,0,40.0,0.0,0.0,4415.8974358974365,3921.538461538462,4409.2307692307695,4433.333333333334,4228.717948717949,4516.923076923077,4425.128205128206,3730.2564102564106,4036.410256410257,4092.307692307693,3673.333333333334,4151.794871794872,3953.8461538461543,4237.948717948719
3478.38,0.31962457,0.5310676,0.33333334,0.5522388,0,0.0,0.0,0.0,0.012077788,0.0,0,0,0.0,0.0,0,0,72.0,0.0,8033.0,4424.102564102564,3929.7435897435903,4404.615384615385,4438.461538461539,4241.025641025642,4533.846153846154,4389.743589743591,3793.8461538461543,4106.666666666667,4092.820512820513,3714.358974358975,4158.461538461539,4033.8461538461543,4193.333333333334
3478.6301,0.3156756,0.5310676,0.33333334,0.5522388,0,0.0,0.0,0.0,0.019920526,0.0,0,0,0.0,0.0,0,0,104.0,0.0,3177.0,4380.000000000001,3927.1794871794878,4399.48717948718,4436.410256410257,4250.769230769231,4544.615384615385,4401.538461538462,3840.0000000000005,4123.589743589744,4202.564102564103,3705.6410256410263,4161.025641025642,4035.8974358974365,4145.641025641026
3478.8804,0.3156756,0.5310676,0.33333334,0.5522388,0,0.0,0.0,0.0,0.020519465,0.0,0,0,0.0,0.0,0,0,7.0,0.0,5051.0,4377.435897435898,3936.410256410257,4415.384615384616,4445.128205128206,4280.512820512821,4578.461538461539,4416.923076923077,4093.8461538461543,4262.051282051282,4445.128205128206,3898.9743589743593,4198.461538461539,4202.564102564103,4115.384615384616
3479.1306,0.37111834,0.5310676,0.33333334,0.5522388,0,0.0,0.0,0.0,0.015721507,0.0,0,0,0.0,0.0,0,0,39.0,0.0,0.0,4405.128205128206,3933.8461538461543,4409.743589743591,4438.461538461539,4268.717948717949,4565.641025641026,4436.923076923077,3927.1794871794878,4252.820512820514,4301.025641025642,3796.410256410257,4175.8974358974365,4154.358974358975,4203.589743589744
3479.3806,0.37111834,0.5310676,0.33333334,0.5522388,0,0.0,0.0,0.0,0.007017728,0.0,0,0,0.0,0.0,0,0,71.0,0.0,4909.0,4421.025641025642,3929.2307692307695,4421.025641025642,4431.794871794872,4236.923076923077,4528.205128205129,4408.205128205129,4110.769230769231,4336.410256410257,4455.8974358974365,3916.410256410257,4202.564102564103,4285.128205128206,4337.435897435898
3479.6309,0.4115408,0.5310676,0.33333334,0.5522388,0,0.0,0.0,0.0,0.01934368,0.0,0,0,0.0,0.0,0,0,103.0,0.0,472.0,4347.6923076923085,3927.1794871794878,4372.820512820514,4436.410256410257,4244.102564102564,4536.410256410257,4370.769230769231,3790.7692307692314,4153.846153846154,4205.128205128206,3691.794871794872,4165.641025641026,4063.076923076924,4270.256410256411
3479.881,0.4115408,0.5310676,0.33333334,0.5522388,0,0.0,0.0,0.0,0.0074185184,0.0,0,0,0.0,0.0,0,0,6.0,0.0,275.0,4286.666666666667,3951.7948717948725,4337.948717948719,4454.871794871796,4314.871794871796,4612.307692307693,4281.538461538462,3660.512820512821,4153.846153846154,4073.8461538461543,3577.435897435898,4140.512820512821,4066.666666666667,4037.9487179487182
3480.1313,0.41225836,0.5310676,0.33333334,0.5522388,0,0.0,0.0,0.0,0.033934932,0.0,0,0,0.0,0.0,0,0,38.0,0.0,0.0,4183.076923076924,3955.8974358974365,4312.307692307693,4453.333333333334,4307.6923076923085,4600.000000000001,4285.641025641026,3948.717948717949,4296.410256410257,4217.948717948719,3761.0256410256416,4176.410256410257,4174.871794871796,4031.2820512820517
3480.3816,0.41225836,0.5310676,0.33333334,0.5522388,0,0.0,0.0,0.0,0.019985458,0.0,0,0,0.0,0.0,0,0,70.0,0.0,258.0,4093.8461538461543,3955.8974358974365,4271.794871794872,4446.153846153847,4293.333333333334,4585.641025641026,4209.74358974359,4238.974358974359,4343.076923076924,4487.179487179488,4180.000000000001,4245.641025641026,4309.2307692307695,3856.410256410257
3480.6318,0.5406154,0.5310676,0.33333334,0.5522388,0,0.0,0.0,0.0,0.011518581,0.0,0,0,0.0,0.0,0,0,102.0,0.0,8033.0,4037.9487179487182,3941.0256410256416,4166.153846153847,4434.871794871796,4231.794871794872,4516.923076923077,4086.1538461538466,3411.2820512820517,3912.307692307693,3900.5128205128212,3092.820512820513,4061.0256410256416,3828.717948717949,3719.48717948718
3480.9133,0.5406154,0.5310676,0.33333334,0.5522388,0,0.03445473,0.0,0.0,0.0,0.0,0,0,0.0,0.0,0,1,9.0,0.0,7482.0,4145.641025641026,3972.307692307693,4243.076923076924,4450.256410256411,4333.333333333334,4630.256410256411,4106.666666666667,4294.871794871796,4381.025641025642,4503.589743589744,4255.384615384616,4258.974358974359,4359.48717948718,3893.8461538461543
3481.1323,0.6857415,0.5310676,0.33333334,0.5522388,0,0.034439985,0.0,0.0,0.0,0.0,0,0,0.0,0.0,0,1,37.0,0.0,0.0,4191.282051282052,3944.1025641025644,4217.435897435898,4445.641025641026,4278.974358974359,4574.358974358975,4046.1538461538466,3321.0256410256416,3902.0512820512827,3863.076923076924,3354.8717948717954,4106.153846153847,3841.538461538462,3914.358974358975
3481.3826,0.6857415,0.5310676,0.33333334,0.5522388,0,0.062207893,0.0,0.0,0.0,0.0,0,0,0.0,0.0,0,0,69.0,0.0,422.0,4255.384615384616,3903.076923076924,4237.948717948719,4415.8974358974365,4200.000000000001,4489.2307692307695,4051.2820512820517,3122.0512820512827,3916.9230769230776,3487.692307692308,3320.0000000000005,4091.7948717948725,3806.1538461538466,4361.538461538462
3481.6326,0.74026823,0.5310676,0.33333334,0.5522388,0,0.0,0.0,0.0,0.005885107,0.0,0,0,0.0,0.0,0,0,101.0,0.0,779.0,4459.48717948718,3931.2820512820517,4392.307692307693,4431.282051282052,4275.384615384616,4579.48717948718,4121.025641025642,4886.666666666667,4664.102564102564,5078.461538461539,4481.538461538462,4323.589743589744,4649.743589743591,4658.974358974359
3481.8828,0.74026823,0.5310676,0.33333334,0.5522388,0,0.0,0.0,0.0,0.0035608802,0.0,0,0,0.0,0.0,0,0,4.0,0.0,447.0,4347.179487179487,3928.717948717949,4346.153846153847,4430.256410256411,4265.128205128206,4571.794871794872,4140.000000000001,4060.5128205128212,4282.051282051282,4354.871794871796,3968.717948717949,4214.358974358975,4207.6923076923085,4534.871794871796
3482.133,0.8428649,0.5310676,0.33333334,0.5522388,0,0.0,0.23423067,0.0,0.0,0.0,0,0,0.0,0.0,0,0,36.0,0.0,0.0,4309.2307692307695,3930.7692307692314,4331.282051282052,4440.000000000001,4295.384615384616,4599.48717948718,4157.948717948719,3900.5128205128212,4198.974358974359,4178.974358974359,3872.307692307693,4187.179487179487,4140.000000000001,4455.8974358974365
3482.3833,0.8428649,0.5310676,0.33333334,0.5522388,0,0.0,0.34359744,0.0,0.0,0.0,0,0,0.0,0.0,0,0,68.0,0.0,448.0,4227.6923076923085,3907.1794871794878,4298.974358974359,4428.205128205129,4314.871794871796,4625.641025641026,4182.564102564103,3646.666666666667,4044.615384615385,3937.9487179487182,3685.6410256410263,4154.871794871796,3960.5128205128212,4342.051282051282
3482.6335,0.75209546,0.5310676,0.33333334,0.5522388,0,0.0,0.2861334,0.0,0.0,0.0,0,0,0.0,0.0,0,0,100.0,0.0,2918.0,4209.2307692307695,3904.615384615385,4271.794871794872,4426.666666666667,4335.384615384616,4594.358974358975,4183.076923076924,3367.1794871794878,3953.333333333334,3613.333333333334,3469.2307692307695,4123.589743589744,3853.333333333334,4244.102564102564
3482.8838,0.75209546,0.5310676,0.33333334,0.5522388,0,0.0,0.0,0.0,0.015638955,0.0,0,0,0.0,0.0,0,0,3.0,0.0,436.0,4247.6923076923085,3909.7435897435903,4286.153846153847,4424.102564102564,4332.820512820514,4622.564102564103,4185.641025641026,4105.641025641026,4341.025641025642,4331.282051282052,3989.23076923077,4220.512820512821,4280.512820512821,4227.179487179487
3483.134,0.680784,0.5310676,0.33333334,0.5522388,0,0.0,0.0,0.0,0.0073714703,0.0,0,0,0.0,0.0,0,0,35.0,0.0,0.0,4417.948717948719,3923.076923076924,4347.179487179487,4432.820512820514,4321.025641025642,4621.538461538462,4230.769230769231,4913.846153846154,4584.102564102564,4995.8974358974365,4727.6923076923085,4354.358974358975,4564.615384615385,4330.256410256411
3483.3843,0.680784,0.5310676,0.33333334,0.5522388,0,0.0,0.0,0.0,0.00985828,0.0,0,0,0.0,0.0,0,0,67.0,0.0,428.0,4444.615384615385,3914.358974358975,4335.384615384616,4423.076923076924,4263.076923076924,4566.666666666667,4233.846153846154,4262.051282051282,4320.512820512821,4400.000000000001,4182.564102564103,4242.051282051282,4301.538461538462,4338.974358974359
3483.6658,0.6727064,0.5310676,0.33333334,0.5522388,1,0.0,0.17719255,0.0,0.0,0.0,0,0,0.0,0.0,0,0,103.0,0.0,475.0,4437.435897435898,3921.538461538462,4353.846153846154,4424.102564102564,4284.615384615385,4590.769230769231,4281.538461538462,4041.0256410256416,4157.948717948719,4101.538461538462,4050.7692307692314,4206.666666666667,4095.8974358974365,4315.384615384616
3483.8845,0.6727064,0.5310676,0.33333334,0.5522388,0,0.0,0.0,0.0,0.0062830355,0.0,0,0,0.0,0.0,0,0,2.0,0.0,478.0,4573.333333333334,3928.717948717949,4455.384615384616,4429.743589743591,4301.025641025642,4620.000000000001,4335.8974358974365,4702.564102564103,4447.179487179487,4672.820512820514,4471.282051282052,4291.794871794872,4444.615384615385,4436.410256410257
3484.1348,0.74687487,0.5310676,0.33333334,0.5522388,0,0.0,0.0,0.0,0.0020668728,0.0,0,0,0.0,0.0,0,0,34.0,0.0,0.0,4671.282051282052,3938.9743589743593,4511.794871794872,4436.410256410257,4321.538461538462,4651.282051282052,4370.256410256411,5183.589743589744,4632.307692307693,5224.102564102564,4876.410256410257,4368.205128205129,4636.410256410257,4518.461538461539
3484.385,0.74687487,0.5310676,0.33333334,0.5522388,0,0.0,0.14005694,0.0,0.0,0.0,0,0,0.0,0.0,0,0,66.0,0.0,478.0,4704.615384615386,3947.692307692308,4530.256410256411,4444.615384615385,4334.871794871796,4665.128205128206,4380.000000000001,5257.435897435898,4564.615384615385,5263.076923076924,4940.000000000001,4375.8974358974365,4622.564102564103,4535.384615384616
3484.6353,0.86724985,0.5310676,0.33333334,0.5522388,0,0.0,0.25392845,0.0,0.0,0.0,0,0,0.0,0.0,0,0,98.0,0.0,8033.0,4649.743589743591,3959.48717948718,4485.641025641026,4451.282051282052,4338.461538461539,4658.974358974359,4346.666666666667,4712.820512820514,4245.128205128206,4683.589743589744,4574.871794871796,4298.461538461539,4249.74358974359,4448.717948717949
3484.8855,0.86724985,0.5310676,0.33333334,0.5522388,0,0.0,0.24490793,0.0,0.0,0.0,0,0,0.0,0.0,0,0,1.0,0.0,361.0,4595.384615384616,3959.48717948718,4433.333333333334,4449.743589743591,4323.076923076924,4638.974358974359,4330.769230769231,4296.923076923077,4078.461538461539,4133.333333333334,4236.410256410257,4223.076923076924,4054.358974358975,4358.974358974359
3485.1357,0.92077774,0.5310676,0.33333334,0.5522388,0,0.0,0.25085548,0.0,0.0,0.0,0,0,0.0,0.0,0,0,33.0,0.0,0.0,4631.282051282052,3980.0000000000005,4415.384615384616,4473.333333333334,4308.205128205129,4614.871794871796,4329.743589743591,4456.410256410257,4152.820512820514,4445.641025641026,4462.564102564103,4271.282051282052,4153.846153846154,4407.179487179487
3485.386,0.92077774,0.5310676,0.33333334,0.5522388,0,0.0,0.0,0.0,0.004710171,0.0,0,0,0.0,0.0,0,0,65.0,0.0,359.0,4544.615384615385,3936.410256410257,4309.2307692307695,4434.871794871796,4201.538461538462,4490.256410256411,4270.769230769231,3486.666666666667,3764.615384615385,3584.1025641025644,3603.0769230769233,4104.102564102564,3711.2820512820517,4230.256410256411
3485.6362,0.98742306,0.5310676,0.33333334,0.5522388,0,0.0,0.0,0.0,0.007581973,0.0,0,0,0.0,0.0,0,0,97.0,0.0,735.0,4541.538461538462,3923.589743589744,4313.846153846154,4425.128205128206,4188.717948717949,4478.974358974359,4324.615384615385,3544.1025641025644,3880.0000000000005,3682.0512820512827,3762.0512820512827,4131.794871794872,3811.2820512820517,4223.076923076924
3485.8862,0.98742306,0.5310676,0.33333334,0.5522388,0,0.0,0.0,0.0,0.008672274,0.0,0,0,0.0,0.0,0,0,0.0,0.0,547.0,4585.128205128206,3941.0256410256416,4350.769230769231,4429.743589743591,4205.128205128206,4496.923076923077,4320.000000000001,3844.615384615385,4145.128205128206,3987.692307692308,4039.48717948718,4184.102564102564,4045.6410256410263,4314.358974358975
3486.1365,0.94526494,0.5310676,0.33333334,0.5522388,0,0.0,0.0,0.0,0.0048599457,0.0,0,0,0.0,0.0,0,0,32.0,0.0,0.0,4663.076923076924,3936.9230769230776,4386.666666666667,4425.128205128206,4211.794871794872,4506.153846153847,4343.589743589744,4085.1282051282055,4219.48717948718,4173.846153846154,4242.051282051282,4222.051282051282,4146.666666666667,4375.384615384616
3486.3867,0.94526494,0.5310676,0.33333334,0.5522388,0,0.0,0.0,0.0,0.005926144,0.0,0,0,0.0,0.0,0,0,64.0,0.0,544.0,4654.358974358975,3940.5128205128212,4417.435897435898,4434.358974358975,4221.025641025642,4512.307692307693,4385.641025641026,4113.846153846154,4234.358974358975,4170.769230769231,4270.256410256411,4219.48717948718,4150.769230769231,4393.333333333334
3486.637,0.92439026,0.5310676,0.33333334,0.5522388,0,0.0,0.0,0.0,0.0061075087,0.0,0,0,0.0,0.0,0,0,96.0,0.0,3372.0,4709.2307692307695,3938.461538461539,4424.615384615385,4434.358974358975,4228.205128205129,4523.589743589744,4389.2307692307695,4216.923076923077,4258.461538461539,4246.153846153847,4348.717948717949,4236.410256410257,4185.641025641026,4398.974358974359
3486.8872,0.92439026,0.5310676,0.33333334,0.5522388,0,0.0,0.0,0.0,0.008565137,0.0,0,0,0.0,0.0,0,0,128.0,0.0,3372.0,4721.025641025642,3945.6410256410263,4476.923076923077,4445.128205128206,4236.410256410257,4538.974358974359,4450.769230769231,4634.871794871796,4334.358974358975,4698.974358974359,4717.948717948719,4305.641025641026,4326.153846153847,4448.717948717949
3487.1375,1.0,0.5310676,0.33333334,0.5522388,0,0.0,0.0,0.0,0.009659569,0.0,0,0,0.0,0.0,0,0,31.0,0.0,0.0,4797.435897435898,3929.2307692307695,4516.410256410257,4429.743589743591,4234.358974358975,4535.384615384616,4459.48717948718,4930.769230769231,4456.410256410257,4908.205128205129,4941.538461538462,4343.076923076924,4458.974358974359,4502.051282051282
3487.3877,1.0,0.5310676,0.33333334,0.5522388,0,0.0,0.0,0.0,0.005603685,0.0,0,0,0.0,0.0,0,0,63.0,0.0,0.0,4837.435897435898,3936.9230769230776,4527.179487179488,4435.8974358974365,4234.871794871796,4538.974358974359,4466.666666666667,4776.923076923077,4288.205128205129,4740.000000000001,4854.871794871796,4321.538461538462,4318.974358974359,4493.333333333334
3487.638,0.93983954,0.5310676,0.33333334,0.5522388,0,0.0,0.0,0.0,0.009169866,0.0,0,0,0.0,0.0,0,0,95.0,0.0,459.0,4727.179487179488,3923.589743589744,4492.307692307693,4427.6923076923085,4221.538461538462,4520.512820512821,4435.384615384616,4187.179487179487,4107.179487179487,4211.282051282052,4348.717948717949,4228.717948717949,4088.205128205129,4419.48717948718
3487.888,0.93983954,0.5310676,0.33333334,0.5522388,0,0.0,0.0,0.0,0.0040325914,0.0,0,0,0.0,0.0,0,0,127.0,0.0,459.0,4686.153846153847,3925.6410256410263,4467.179487179487,4421.025641025642,4238.974358974359,4536.923076923077,4417.435897435898,3944.615384615385,3965.1282051282055,3968.717948717949,4110.769230769231,4180.512820512821,3933.8461538461543,4350.256410256411
3488.1382,0.95689255,0.5310676,0.33333334,0.5522388,0,0.0,0.0,0.0,0.006417643,0.0,0,0,0.0,0.0,0,0,30.0,0.0,0.0,4730.256410256411,3934.8717948717954,4500.512820512821,4424.102564102564,4271.282051282052,4578.461538461539,4427.179487179487,4265.128205128206,4123.076923076924,4305.128205128206,4431.282051282052,4245.128205128206,4087.692307692308,4393.846153846154
3488.3884,0.95689255,0.5310676,0.33333334,0.5522388,0,0.0,0.0,0.0,0.0063826875,0.0,0,0,0.0,0.0,0,0,62.0,0.0,0.0,4727.179487179488,3927.692307692308,4497.435897435898,4416.923076923077,4249.74358974359,4548.205128205129,4429.743589743591,4267.6923076923085,4083.589743589744,4315.384615384616,4373.846153846154,4241.025641025642,4065.1282051282055,4428.717948717949
3488.6387,0.8498536,0.5310676,0.33333334,0.5522388,0,0.0,0.0,0.0,0.00822818,0.0,0,0,0.0,0.0,0,0,94.0,0.0,8033.0,4691.282051282052,3929.7435897435903,4498.461538461539,4415.384615384616,4225.128205128206,4522.564102564103,4430.769230769231,4009.7435897435903,4005.6410256410263,4047.1794871794878,4171.282051282052,4199.48717948718,3950.2564102564106,4406.153846153847
3488.889,0.8498536,0.5310676,0.33333334,0.5522388,0,0.0,0.0,0.0,0.0049767355,0.0,0,0,0.0,0.0,0,0,126.0,0.0,8033.0,4646.153846153847,3928.717948717949,4451.282051282052,4406.666666666667,4253.846153846154,4546.666666666667,4381.538461538462,3775.8974358974365,3927.692307692308,3844.615384615385,3953.8461538461543,4157.435897435898,3888.205128205129,4370.769230769231
3489.1392,0.74774885,0.5310676,0.33333334,0.5522388,0,0.0,0.0,0.0,0.005494389,0.0,0,0,0.0,0.0,0,0,29.0,0.0,0.0,4610.769230769231,3929.2307692307695,4433.846153846154,4403.589743589744,4266.666666666667,4568.205128205129,4358.974358974359,3711.2820512820517,3895.8974358974365,3817.9487179487182,3832.307692307693,4142.051282051282,3815.3846153846157,4361.025641025642
3489.3894,0.74774885,0.5310676,0.33333334,0.5522388,0,0.0,0.0,0.0,0.0037325425,0.0,0,0,0.0,0.0,0,0,61.0,0.0,0.0,4170.769230769231,3920.0000000000005,4135.8974358974365,4374.358974358975,4293.846153846154,4582.564102564103,4174.871794871796,1836.9230769230771,2688.717948717949,1898.9743589743591,1971.2820512820515,3764.615384615385,2350.769230769231,3882.564102564103
3489.671,0.75637794,0.5310676,0.33333334,0.5522388,0,0.0,0.0,0.0,0.004022084,0.0,0,0,0.0,0.0,0,1,97.0,0.0,780.0,4157.948717948719,3911.2820512820517,4177.435897435898,4333.333333333334,4270.256410256411,4556.923076923077,4170.256410256411,2170.769230769231,3353.8461538461543,2372.307692307693,2295.3846153846157,3838.461538461539,3077.9487179487182,3926.1538461538466
3489.8896,0.75637794,0.5310676,0.33333334,0.5522388,0,0.0,0.0,0.0,0.021932933,0.0,0,0,0.0,0.0,0,1,125.0,0.0,780.0,4191.282051282052,3915.8974358974365,4214.871794871796,4349.743589743591,4278.461538461539,4555.384615384616,4148.717948717949,2596.410256410257,3782.564102564103,2955.3846153846157,2651.794871794872,3930.2564102564106,3508.717948717949,3973.8461538461543
3490.1711,0.8756126,0.5310676,0.33333334,0.5522388,0,0.0,0.0,0.0,0.009663685,0.0,0,0,0.0,0.0,0,1,32.0,0.0,0.0,4356.410256410257,3923.076923076924,4333.846153846154,4439.48717948718,4304.615384615385,4586.153846153847,4200.512820512821,4084.1025641025644,4527.6923076923085,4446.666666666667,3802.564102564103,4168.717948717949,4368.205128205129,4178.461538461539
3490.3901,0.8756126,0.5310676,0.33333334,0.5522388,0,0.0,0.0,0.0,0.007796074,0.0,0,0,0.0,0.0,0,1,60.0,0.0,0.0,4359.48717948718,3909.7435897435903,4341.538461538462,4451.282051282052,4267.6923076923085,4545.641025641026,4214.358974358975,4105.128205128206,4477.435897435898,4472.307692307693,3927.692307692308,4185.641025641026,4352.820512820514,4148.205128205129
3490.6404,0.92851245,0.5310676,0.33333334,0.5522388,0,0.0,0.0,0.0,0.0076607587,0.0,0,0,0.0,0.0,0,0,92.0,0.0,3453.0,4433.333333333334,3908.717948717949,4389.2307692307695,4470.256410256411,4253.333333333334,4523.076923076924,4250.256410256411,4494.358974358975,4567.179487179488,4781.538461538462,4336.923076923077,4252.307692307693,4484.102564102564,4189.2307692307695
3490.8906,0.92851245,0.5310676,0.33333334,0.5522388,0,0.0,0.0,0.0,0.0040624673,0.0,0,0,0.0,0.0,0,0,124.0,0.0,3453.0,4435.8974358974365,3907.1794871794878,4431.794871794872,4471.282051282052,4257.435897435898,4529.743589743591,4263.076923076924,4720.000000000001,4598.461538461539,4949.2307692307695,4560.512820512821,4282.564102564103,4583.076923076924,4258.974358974359
3491.1409,0.8499565,0.5310676,0.33333334,0.5522388,0,0.0,0.0,0.0,0.005091371,0.0,0,0,0.0,0.0,0,0,27.0,0.0,0.0,4429.743589743591,3908.717948717949,4430.256410256411,4464.615384615385,4254.358974358975,4531.794871794872,4267.179487179487,4621.025641025642,4496.923076923077,4851.282051282052,4396.410256410257,4253.333333333334,4444.102564102564,4225.641025641026
3491.391,0.8499565,0.5310676,0.33333334,0.5522388,0,0.0,0.0,0.0,0.002549217,0.0,0,0,0.0,0.0,0,0,59.0,0.0,0.0,4522.051282051282,3918.461538461539,4445.128205128206,4465.641025641026,4257.435897435898,4545.641025641026,4261.538461538462,4802.051282051282,4580.000000000001,5003.076923076924,4672.820512820514,4296.410256410257,4570.769230769231,4276.410256410257
3491.6414,0.79536915,0.5310676,0.33333334,0.5522388,0,0.0,0.0,0.0,0.003200636,0.0,0,0,0.0,0.0,0,0,91.0,0.0,453.0,4505.128205128206,3922.0512820512827,4447.6923076923085,4462.564102564103,4254.358974358975,4543.589743589744,4267.179487179487,4778.461538461539,4460.512820512821,4927.179487179488,4557.435897435898,4272.820512820514,4442.564102564103,4261.025641025642
3491.8916,0.79536915,0.5310676,0.33333334,0.5522388,0,0.0,0.0,0.0,0.0054617845,0.0,0,0,0.0,0.0,0,0,123.0,0.0,453.0,4573.846153846154,3917.9487179487182,4440.000000000001,4459.48717948718,4249.2307692307695,4538.974358974359,4262.564102564103,4720.512820512821,4391.794871794872,4871.794871794872,4594.871794871796,4273.846153846154,4429.2307692307695,4280.000000000001
3492.1416,0.7270101,0.5310676,0.33333334,0.5522388,0,0.0,0.0,0.0,0.006202559,0.0,0,0,0.0,0.0,0,0,26.0,0.0,0.0,4546.153846153847,3929.7435897435903,4437.948717948719,4458.974358974359,4247.179487179487,4536.410256410257,4262.564102564103,4765.128205128206,4325.128205128206,4874.871794871796,4507.179487179488,4258.461538461539,4349.2307692307695,4265.128205128206
3492.3918,0.7270101,0.5310676,0.33333334,0.5522388,0,0.0,0.0,0.0,0.0050019454,0.0,0,0,0.0,0.0,0,0,58.0,0.0,0.0,4596.410256410257,3931.7948717948725,4463.589743589744,4460.512820512821,4247.6923076923085,4544.102564102564,4273.846153846154,4827.6923076923085,4391.282051282052,4951.282051282052,4722.051282051282,4291.794871794872,4447.179487179487,4352.307692307693
3492.642,0.69902754,0.5310676,0.33333334,0.5522388,0,0.0,0.0,0.0,0.0038028276,0.0,0,0,0.0,0.0,0,0,90.0,0.0,8033.0,4621.538461538462,3927.692307692308,4457.435897435898,4452.307692307693,4250.256410256411,4545.128205128206,4285.128205128206,4823.076923076924,4345.641025641026,4904.615384615386,4619.48717948718,4270.256410256411,4373.333333333334,4332.307692307693
3492.8923,0.69902754,0.5310676,0.33333334,0.5522388,0,0.0,0.0,0.0,0.008085136,0.0,0,0,0.0,0.0,0,0,122.0,0.0,8033.0,4626.153846153847,3927.1794871794878,4473.333333333334,4452.820512820514,4251.282051282052,4544.615384615385,4314.358974358975,4793.333333333334,4315.8974358974365,4883.589743589744,4685.641025641026,4277.948717948719,4377.948717948719,4376.410256410257
3493.1426,0.63991994,0.5310676,0.33333334,0.5522388,0,0.0,0.0,0.0,0.004433776,0.0,0,0,0.0,0.0,0,0,25.0,0.0,0.0,4693.333333333334,3921.538461538462,4514.871794871796,4447.6923076923085,4254.358974358975,4558.461538461539,4336.410256410257,4991.282051282052,4426.666666666667,4999.48717948718,4821.538461538462,4304.102564102564,4458.461538461539,4447.6923076923085
3493.3928,0.63991994,0.5310676,0.33333334,0.5522388,0,0.0,0.0,0.0,0.008700992,0.0,0,0,0.0,0.0,0,0,57.0,0.0,0.0,4678.461538461539,3928.205128205129,4487.6923076923085,4443.589743589744,4263.076923076924,4560.512820512821,4362.564102564103,4710.256410256411,4242.564102564103,4758.461538461539,4572.307692307693,4256.410256410257,4280.512820512821,4409.743589743591
3493.643,0.70295596,0.5310676,0.33333334,0.5522388,0,0.0,0.0,0.0,0.0052030175,0.0,0,0,0.0,0.0,0,0,89.0,0.0,810.0,4685.641025641026,3929.7435897435903,4481.538461538462,4442.051282051282,4257.948717948719,4562.564102564103,4357.435897435898,4737.948717948719,4242.564102564103,4792.820512820514,4513.333333333334,4245.128205128206,4260.000000000001,4416.410256410257
3493.8933,0.70295596,0.5310676,0.33333334,0.5522388,0,0.0,0.0,0.0,0.0060291765,0.0,0,0,0.0,0.0,0,0,121.0,0.0,810.0,4684.615384615386,3928.717948717949,4483.076923076924,4441.538461538462,4260.000000000001,4563.076923076924,4373.846153846154,4576.410256410257,4214.358974358975,4612.820512820514,4428.205128205129,4227.179487179487,4226.153846153847,4397.435897435898
3494.1433,0.67933583,0.5310676,0.33333334,0.5522388,0,0.0,0.0,0.0,0.0043989727,0.0,0,0,0.0,0.0,0,0,24.0,0.0,0.0,4734.358974358975,3929.2307692307695,4501.025641025642,4442.564102564103,4262.051282051282,4565.128205128206,4399.48717948718,4916.923076923077,4374.358974358975,4907.179487179488,4708.205128205129,4282.051282051282,4381.025641025642,4446.153846153847
3494.3936,0.67933583,0.5310676,0.33333334,0.5522388,0,0.0,0.0,0.0,0.007896984,0.0,0,0,0.0,0.0,0,0,56.0,0.0,0.0,4760.000000000001,3928.717948717949,4513.846153846154,4445.128205128206,4262.564102564103,4563.589743589744,4430.256410256411,4833.846153846154,4377.435897435898,4834.871794871796,4743.589743589744,4281.538461538462,4394.358974358975,4508.205128205129
3494.6438,0.6648678,0.5310676,0.33333334,0.5522388,0,0.0,0.0,0.0,0.009494437,0.0,0,0,0.0,0.0,0,0,88.0,0.0,3378.0,4865.128205128206,3966.1538461538466,4574.871794871796,4476.923076923077,4299.48717948718,4601.025641025642,4475.8974358974365,5395.8974358974365,4661.025641025642,5346.153846153847,5304.102564102564,4385.641025641026,4691.794871794872,4577.948717948719
3494.894,0.6648678,0.5310676,0.33333334,0.5522388,0,0.0,0.0,0.0,0.011417119,0.0,0,0,0.0,0.0,0,0,120.0,0.0,3378.0,4748.205128205129,3931.2820512820517,4518.974358974359,4445.128205128206,4270.256410256411,4570.256410256411,4468.205128205129,4700.000000000001,4248.717948717949,4683.589743589744,4624.102564102564,4256.923076923077,4273.846153846154,4543.076923076924
3495.1443,0.7950837,0.5310676,0.33333334,0.5522388,0,0.0,0.0,0.0,0.010271774,0.0,0,0,0.0,0.0,0,0,23.0,0.0,0.0,4731.794871794872,3918.461538461539,4497.948717948719,4431.282051282052,4253.333333333334,4552.820512820514,4467.6923076923085,4488.717948717949,4131.794871794872,4534.358974358975,4367.179487179487,4218.461538461539,4155.384615384616,4506.153846153847
3495.3945,0.7950837,0.5310676,0.33333334,0.5522388,0,0.0,0.0,0.0,0.008082312,0.0,0,0,0.0,0.0,0,0,55.0,0.0,0.0,4804.615384615386,3923.589743589744,4530.769230769231,4437.948717948719,4259.48717948718,4561.538461538462,4491.794871794872,4690.769230769231,4282.051282051282,4680.512820512821,4618.974358974359,4266.153846153847,4282.564102564103,4539.48717948718
3495.6448,0.8219757,0.5310676,0.33333334,0.5522388,0,0.0,0.0,0.0,0.010581222,0.0,0,0,0.0,0.0,0,0,87.0,0.0,454.0,4775.8974358974365,3940.5128205128212,4536.410256410257,4440.512820512821,4262.564102564103,4567.179487179488,4506.666666666667,4755.8974358974365,4289.74358974359,4754.871794871796,4638.461538461539,4270.769230769231,4278.461538461539,4540.512820512821
3495.895,0.8219757,0.5310676,0.33333334,0.5522388,0,0.0,0.0,0.0,0.007313058,0.0,0,0,0.0,0.0,0,0,119.0,0.0,454.0,4777.948717948719,3948.205128205129,4550.256410256411,4444.102564102564,4264.615384615385,4564.102564102564,4516.923076923077,4745.641025641026,4317.435897435898,4726.666666666667,4657.948717948719,4277.435897435898,4316.410256410257,4558.974358974359
3496.145,0.84725195,0.5310676,0.33333334,0.5522388,0,0.0,0.27123064,0.0,0.0,0.0,0,0,0.0,0.0,0,0,22.0,0.0,0.0,4820.000000000001,3949.7435897435903,4564.102564102564,4445.641025641026,4268.717948717949,4570.769230769231,4522.051282051282,4799.48717948718,4329.743589743591,4768.717948717949,4721.538461538462,4294.358974358975,4316.923076923077,4561.538461538462
3496.3953,0.84725195,0.5310676,0.33333334,0.5522388,0,0.0,0.29687038,0.0,0.0,0.0,0,0,0.0,0.0,0,0,54.0,0.0,0.0,4778.461538461539,3950.2564102564106,4551.282051282052,4445.641025641026,4263.589743589744,4562.051282051282,4529.743589743591,4445.641025641026,4203.589743589744,4455.384615384616,4435.384615384616,4238.461538461539,4161.538461538462,4512.307692307693
3496.6455,0.8804556,0.5310676,0.33333334,0.5522388,0,0.0,0.0,0.0,0.0093353065,0.0,0,0,0.0,0.0,0,0,86.0,0.0,8033.0,4841.025641025642,3942.564102564103,4551.794871794872,4440.000000000001,4251.794871794872,4553.846153846154,4522.564102564103,4410.256410256411,4166.666666666667,4385.128205128206,4407.179487179487,4234.358974358975,4121.538461538462,4489.743589743591
3496.8958,0.8804556,0.5310676,0.33333334,0.5522388,0,0.0,0.0,0.0,0.011174121,0.0,0,0,0.0,0.0,0,0,118.0,0.0,8033.0,4744.615384615386,3938.461538461539,4540.512820512821,4432.820512820514,4246.153846153847,4551.794871794872,4522.051282051282,4180.512820512821,4138.461538461539,4209.74358974359,4249.2307692307695,4201.025641025642,4075.3846153846157,4497.435897435898
3497.146,0.8267289,0.5310676,0.33333334,0.5522388,0,0.0,0.0,0.0,0.011001426,0.0,0,0,0.0,0.0,0,0,21.0,0.0,0.0,4798.461538461539,3951.7948717948725,4580.000000000001,4447.179487179487,4272.820512820514,4574.871794871796,4540.512820512821,4538.461538461539,4274.358974358975,4470.769230769231,4516.410256410257,4255.384615384616,4228.205128205129,4543.589743589744
3497.3962,0.8267289,0.5310676,0.33333334,0.5522388,0,0.0,0.0,0.0,0.011361974,0.0,0,0,0.0,0.0,0,0,53.0,0.0,0.0,4845.641025641026,3942.564102564103,4586.153846153847,4443.076923076924,4268.717948717949,4570.769230769231,4549.743589743591,4592.820512820514,4332.820512820514,4601.025641025642,4582.564102564103,4269.74358974359,4284.615384615385,4586.666666666667
3497.6465,0.7444897,0.5310676,0.33333334,0.5522388,0,0.0,0.0,0.0,0.014990239,0.0,0,0,0.0,0.0,0,0,85.0,0.0,691.0,4795.384615384616,3924.1025641025644,4567.6923076923085,4433.333333333334,4246.153846153847,4548.717948717949,4539.48717948718,4386.666666666667,4229.74358974359,4327.179487179487,4409.743589743591,4231.282051282052,4169.74358974359,4618.974358974359
3497.8967,0.7444897,0.5310676,0.33333334,0.5522388,0,0.0,0.0,0.0,0.01301329,0.0,0,0,0.0,0.0,0,0,117.0,0.0,691.0,4750.769230769231,3917.435897435898,4538.974358974359,4423.076923076924,4228.717948717949,4529.2307692307695,4528.205128205129,4051.7948717948725,4094.8717948717954,4060.5128205128212,4164.615384615385,4186.153846153847,4031.7948717948725,4584.102564102564
3498.147,0.76208246,0.5310676,0.33333334,0.5522388,0,0.0,0.0,0.0,0.012502552,0.0,0,0,0.0,0.0,0,0,20.0,0.0,0.0,4791.282051282052,3921.0256410256416,4554.358974358975,4428.717948717949,4240.512820512821,4540.000000000001,4540.000000000001,4251.282051282052,4188.717948717949,4204.102564102564,4316.923076923077,4213.846153846154,4121.538461538462,4602.051282051282
3498.397,0.76208246,0.5310676,0.33333334,0.5522388,0,0.0,0.0,0.0,0.017971449,0.0,0,0,0.0,0.0,0,0,52.0,0.0,0.0,4759.48717948718,3925.6410256410263,4543.589743589744,4429.743589743591,4246.153846153847,4546.666666666667,4524.615384615385,4116.923076923077,4140.512820512821,4118.461538461539,4243.076923076924,4200.000000000001,4075.8974358974365,4603.589743589744
3498.6472,0.66003215,0.5310676,0.33333334,0.5522388,0,0.0,0.0,0.0,0.009602762,0.0,0,0,0.0,0.0,0,0,84.0,0.0,3026.0,4709.2307692307695,3928.205128205129,4541.025641025642,4430.256410256411,4247.179487179487,4546.666666666667,4520.000000000001,4000.5128205128212,4147.179487179487,4033.8461538461543,4134.358974358975,4179.48717948718,4063.076923076924,4568.717948717949
3498.8975,0.66003215,0.5310676,0.33333334,0.5522388,0,0.0,0.0,0.0,0.010330843,0.0,0,0,0.0,0.0,0,0,116.0,0.0,3026.0,4768.205128205129,3935.3846153846157,4561.538461538462,4432.820512820514,4245.128205128206,4546.666666666667,4537.435897435898,4318.974358974359,4291.794871794872,4383.076923076924,4382.051282051282,4231.794871794872,4222.051282051282,4607.6923076923085
3499.1477,0.61669713,0.5310676,0.33333334,0.5522388,0,0.0,0.0,0.0,0.005133304,0.0,0,0,0.0,0.0,0,0,19.0,0.0,0.0,4829.743589743591,3935.3846153846157,4598.974358974359,4433.846153846154,4246.153846153847,4547.6923076923085,4541.025641025642,4770.256410256411,4445.641025641026,4750.769230769231,4716.923076923077,4301.025641025642,4411.282051282052,4750.256410256411
3499.398,0.61669713,0.5310676,0.33333334,0.5522388,0,0.0,0.0,0.0,0.0068677994,0.0,0,0,0.0,0.0,0,0,51.0,0.0,0.0,4736.410256410257,3935.3846153846157,4570.256410256411,4433.846153846154,4243.589743589744,4538.974358974359,4545.641025641026,4297.948717948719,4217.435897435898,4332.820512820514,4386.153846153847,4233.846153846154,4152.820512820514,4649.743589743591
3499.6482,0.57872015,0.5310676,0.33333334,0.5522388,0,0.0,0.43386117,0.0,0.0,0.0,0,0,0.0,0.0,0,0,83.0,0.0,472.0,4743.076923076924,3938.461538461539,4555.384615384616,4438.974358974359,4251.794871794872,4555.8974358974365,4538.461538461539,4373.333333333334,4195.8974358974365,4282.564102564103,4429.2307692307695,4233.333333333334,4142.564102564103,4631.282051282052
3499.8984,0.57872015,0.5310676,0.33333334,0.5522388,0,0.0,0.6232313,0.0,0.0,0.0,0,0,0.0,0.0,0,0,115.0,0.0,472.0,4683.589743589744,3927.692307692308,4522.051282051282,4434.871794871796,4251.282051282052,4552.307692307693,4517.948717948719,4008.205128205129,4059.48717948718,3991.7948717948725,4170.256410256411,4183.589743589744,3990.2564102564106,4582.051282051282
3500.1487,0.5489998,0.5310676,0.33333334,0.5522388,0,0.0,0.545291,0.0,0.0,0.0,0,0,0.0,0.0,0,0,18.0,0.0,0.0,4607.6923076923085,3927.692307692308,4496.410256410257,4429.743589743591,4254.358974358975,4553.846153846154,4489.2307692307695,3767.1794871794878,3985.1282051282055,3825.1282051282055,4020.5128205128212,4152.820512820514,3894.358974358975,4567.179487179488
3500.3987,0.5489998,0.5310676,0.33333334,0.5522388,0,0.0,0.0,0.0,0.013811838,0.0,0,0,0.0,0.0,0,0,50.0,0.0,0.0,4593.333333333334,3926.1538461538466,4465.641025641026,4430.256410256411,4257.435897435898,4558.974358974359,4453.333333333334,3701.538461538462,3908.205128205129,3719.48717948718,3937.435897435898,4140.000000000001,3836.410256410257,4527.6923076923085
3500.649,0.54958874,0.5310676,0.33333334,0.5522388,0,0.0,0.0,0.0,0.019521445,0.0,0,0,0.0,0.0,0,0,82.0,0.0,8033.0,4570.256410256411,3928.717948717949,4459.48717948718,4430.769230769231,4264.102564102564,4561.538461538462,4441.538461538462,3683.0769230769233,4008.717948717949,3816.410256410257,3945.1282051282055,4143.076923076924,3895.3846153846157,4521.025641025642
3500.8992,0.54958874,0.5310676,0.33333334,0.5522388,0,0.0,0.0,0.0,0.013789967,0.0,0,0,0.0,0.0,0,0,114.0,0.0,8033.0,4533.333333333334,3936.9230769230776,4437.435897435898,4430.256410256411,4259.48717948718,4563.076923076924,4440.000000000001,3615.3846153846157,3943.589743589744,3712.307692307693,3868.205128205129,4131.794871794872,3850.2564102564106,4474.358974358975
3501.1494,0.58341473,0.5310676,0.33333334,0.5522388,0,0.0,0.0,0.0,0.012252125,0.0,0,0,0.0,0.0,0,0,17.0,0.0,0.0,4608.717948717949,3942.564102564103,4466.666666666667,4438.461538461539,4272.820512820514,4570.769230769231,4450.769230769231,3970.7692307692314,4153.333333333334,4050.2564102564106,4129.2307692307695,4180.512820512821,4063.076923076924,4501.025641025642
3501.3997,0.58341473,0.5310676,0.33333334,0.5522388,0,0.0,0.0,0.0,0.014599401,0.0,0,0,0.0,0.0,0,0,49.0,0.0,0.0,4606.666666666667,3939.48717948718,4467.179487179487,4441.025641025642,4266.666666666667,4569.743589743591,4458.461538461539,4077.9487179487187,4191.282051282052,4174.358974358975,4191.794871794872,4205.128205128206,4093.8461538461543,4557.435897435898
3501.65,0.575959,0.5310676,0.33333334,0.5522388,0,0.0,0.0,0.0,0.027964825,0.0,0,0,0.0,0.0,0,0,81.0,0.0,667.0,4532.820512820514,3956.9230769230776,4447.179487179487,4461.025641025642,4292.820512820514,4589.2307692307695,4434.358974358975,4006.1538461538466,4133.846153846154,4113.333333333334,4130.769230769231,4197.435897435898,4060.5128205128212,4505.641025641026
3501.9001,0.575959,0.5310676,0.33333334,0.5522388,0,0.0,0.0,0.0,0.01160659,0.0,0,0,0.0,0.0,0,0,113.0,0.0,667.0,4586.153846153847,3952.307692307693,4458.461538461539,4457.948717948719,4296.410256410257,4593.333333333334,4446.666666666667,4177.435897435898,4216.410256410257,4295.384615384616,4285.641025641026,4227.179487179487,4129.2307692307695,4521.025641025642
3502.1504,0.58906764,0.5310676,0.33333334,0.5522388,0,0.0,0.0,0.0,0.008149941,0.0,0,0,0.0,0.0,0,0,16.0,0.0,0.0,4612.307692307693,3943.589743589744,4465.641025641026,4449.743589743591,4278.974358974359,4571.282051282052,4448.717948717949,4193.333333333334,4181.538461538462,4330.769230769231,4273.846153846154,4223.589743589744,4130.769230769231,4534.358974358975
3502.4006,0.58906764,0.5310676,0.33333334,0.5522388,0,0.0,0.0,0.0,0.011587256,0.0,0,0,0.0,0.0,0,0,48.0,0.0,0.0,4540.000000000001,3923.076923076924,4438.461538461539,4436.923076923077,4261.538461538462,4553.333333333334,4444.102564102564,3673.8461538461543,3984.1025641025644,3834.8717948717954,3897.435897435898,4145.641025641026,3901.538461538462,4450.769230769231
3502.6506,0.5672421,0.5310676,0.33333334,0.5522388,0,0.0,0.0,0.0,0.011642174,0.0,0,0,0.0,0.0,0,1,80.0,0.0,2969.0,4626.153846153847,3933.333333333334,4480.000000000001,4442.051282051282,4294.358974358975,4600.000000000001,4463.589743589744,4249.2307692307695,4201.538461538462,4425.641025641026,4308.205128205129,4235.8974358974365,4144.615384615385,4470.256410256411
3502.901,0.5672421,0.5310676,0.33333334,0.5522388,0,0.0,0.0,0.0,0.011515439,0.0,0,0,0.0,0.0,0,1,112.0,0.0,2969.0,4645.128205128206,3921.0256410256416,4498.974358974359,4438.461538461539,4240.512820512821,4536.923076923077,4472.820512820514,4117.435897435898,4132.307692307693,4248.205128205129,4244.615384615385,4214.358974358975,4083.589743589744,4471.794871794872
3503.1511,0.56800765,0.5310676,0.33333334,0.5522388,0,0.0,0.0,0.0,0.011419685,0.0,0,0,0.0,0.0,0,0,15.0,0.0,478.0,4612.820512820514,3928.717948717949,4486.153846153847,4415.384615384616,4205.128205128206,4499.48717948718,4485.128205128206,3958.9743589743593,4073.333333333334,4179.48717948718,4108.205128205129,4191.794871794872,4009.7435897435903,4438.974358974359
3503.4014,0.56800765,0.5310676,0.33333334,0.5522388,0,0.0,0.0,0.0,0.01212952,0.0,0,0,0.0,0.0,0,1,47.0,0.0,0.0,4671.794871794872,3942.0512820512827,4510.769230769231,4422.051282051282,4257.435897435898,4558.974358974359,4472.820512820514,4668.205128205129,4388.717948717949,4952.307692307693,4774.358974358975,4315.8974358974365,4396.923076923077,4441.538461538462
3503.714,0.52103245,0.5310676,0.33333334,0.5522388,0,0.0,0.0,0.0,0.0121870255,0.0,0,0,0.0,0.0,0,0,87.0,0.0,470.0,4616.923076923077,3928.717948717949,4488.717948717949,4413.333333333334,4225.128205128206,4531.282051282052,4468.717948717949,4536.923076923077,4227.179487179487,4711.794871794872,4360.512820512821,4246.153846153847,4233.846153846154,4437.948717948719
3503.9019,0.52103245,0.5310676,0.33333334,0.5522388,0,0.0,0.0,0.0,0.0103325285,0.0,0,0,0.0,0.0,0,0,111.0,0.0,470.0,4517.948717948719,3907.692307692308,4404.615384615385,4402.051282051282,4183.076923076924,4484.102564102564,4431.794871794872,3393.8461538461543,3686.1538461538466,3617.435897435898,3530.7692307692314,4083.076923076924,3627.1794871794878,4345.641025641026
3504.152,0.5880182,0.5310676,0.33333334,0.5522388,0,0.0,0.0,0.0,0.009895118,0.0,0,0,0.0,0.0,0,0,14.0,0.0,8033.0,4578.461538461539,3920.5128205128212,4441.538461538462,4416.410256410257,4200.000000000001,4505.128205128206,4444.102564102564,3596.9230769230776,3861.538461538462,3754.358974358975,3753.333333333334,4125.641025641026,3820.512820512821,4388.717948717949
3504.4023,0.5880182,0.5310676,0.33333334,0.5522388,0,0.0,0.0,0.0,0.011361754,0.0,0,0,0.0,0.0,0,0,46.0,0.0,0.0,4566.666666666667,3923.076923076924,4464.615384615385,4430.769230769231,4231.794871794872,4544.615384615385,4440.512820512821,3778.461538461539,3997.435897435898,3948.205128205129,3881.538461538462,4155.384615384616,3909.2307692307695,4400.000000000001
3504.6523,0.6477684,0.5310676,0.33333334,0.5522388,0,0.0,0.0,0.0,0.0110573685,0.0,0,0,0.0,0.0,0,0,78.0,0.0,8033.0,4604.102564102564,3933.8461538461543,4460.000000000001,4440.000000000001,4251.794871794872,4559.48717948718,4427.179487179487,4017.9487179487182,4137.435897435898,4229.74358974359,4057.435897435898,4195.384615384616,4075.8974358974365,4412.307692307693
3504.9026,0.6477684,0.5310676,0.33333334,0.5522388,0,0.0,0.0,0.0,0.010693363,0.0,0,0,0.0,0.0,0,0,110.0,0.0,8033.0,4514.871794871796,3925.6410256410263,4426.153846153847,4434.358974358975,4248.717948717949,4555.8974358974365,4401.025641025642,3707.1794871794878,3998.9743589743593,3958.9743589743593,3805.6410256410263,4146.666666666667,3904.615384615385,4367.179487179487
3505.1528,0.65687096,0.5310676,0.33333334,0.5522388,0,0.0,0.0,0.0,0.007728226,0.0,0,0,0.0,0.0,0,0,13.0,0.0,705.0,4484.102564102564,3927.1794871794878,4420.000000000001,4440.512820512821,4265.128205128206,4571.282051282052,4387.6923076923085,3631.794871794872,4012.307692307693,3870.2564102564106,3742.0512820512827,4129.2307692307695,3937.435897435898,4369.2307692307695
3505.403,0.65687096,0.5310676,0.33333334,0.5522388,0,0.0,0.0,0.0,0.015237307,0.0,0,0,0.0,0.0,0,0,45.0,0.0,0.0,4533.846153846154,3926.666666666667,4417.948717948719,4439.48717948718,4271.282051282052,4577.435897435898,4378.461538461539,3680.512820512821,4073.8461538461543,3970.7692307692314,3747.692307692308,4135.8974358974365,3979.48717948718,4318.461538461539
3505.6533,0.60656935,0.5310676,0.33333334,0.5522388,0,0.0,0.0,0.0,0.010204773,0.0,0,0,0.0,0.0,0,0,77.0,0.0,694.0,4568.717948717949,3944.615384615385,4448.717948717949,4448.205128205129,4285.128205128206,4589.2307692307695,4386.666666666667,4123.589743589744,4274.871794871796,4385.641025641026,4070.7692307692314,4202.564102564103,4214.358974358975,4389.2307692307695
3505.9036,0.60656935,0.5310676,0.33333334,0.5522388,0,0.0,0.0,0.0,0.011864269,0.0,0,0,0.0,0.0,0,0,109.0,0.0,694.0,4527.179487179488,3935.8974358974365,4451.282051282052,4442.051282051282,4266.666666666667,4568.717948717949,4395.8974358974365,4049.7435897435903,4192.307692307693,4340.512820512821,4003.589743589744,4187.179487179487,4126.666666666667,4398.461538461539
3506.1538,0.56644064,0.5310676,0.33333334,0.5522388,0,0.0,0.0,0.0,0.013004516,0.0,0,0,0.0,0.0,0,0,12.0,0.0,3048.0,4556.923076923077,3935.3846153846157,4453.333333333334,4441.538461538462,4271.282051282052,4571.282051282052,4410.256410256411,4174.871794871796,4283.589743589744,4463.076923076924,4093.333333333334,4204.102564102564,4232.307692307693,4396.410256410257
3506.404,0.56644064,0.5310676,0.33333334,0.5522388,0,0.0,0.0,0.0,0.013675194,0.0,0,0,0.0,0.0,0,0,44.0,0.0,0.0,4524.615384615385,3931.7948717948725,4440.000000000001,4438.974358974359,4266.666666666667,4571.282051282052,4405.128205128206,4022.0512820512827,4186.153846153847,4349.2307692307695,3969.2307692307695,4179.48717948718,4120.000000000001,4344.615384615385
3506.654,0.5658933,0.5310676,0.33333334,0.5522388,0,0.0,0.0,0.0,0.008983395,0.0,0,0,0.0,0.0,0,0,76.0,0.0,3035.0,4608.205128205129,3937.9487179487182,4498.974358974359,4440.000000000001,4269.74358974359,4569.2307692307695,4416.923076923077,4563.589743589744,4475.8974358974365,4833.846153846154,4380.512820512821,4257.435897435898,4428.717948717949,4467.179487179487
3506.9043,0.5658933,0.5310676,0.33333334,0.5522388,0,0.0,0.0,0.0,0.0015928514,0.0,0,0,0.0,0.0,0,0,108.0,0.0,3035.0,4670.256410256411,3945.1282051282055,4512.820512820514,4445.641025641026,4269.74358974359,4569.2307692307695,4434.871794871796,4778.974358974359,4451.282051282052,4949.2307692307695,4558.974358974359,4282.051282051282,4452.307692307693,4473.846153846154
3507.1545,0.5535845,0.5310676,0.33333334,0.5522388,0,0.0,0.0,0.0,0.007230233,0.0,0,0,0.0,0.0,0,0,11.0,0.0,479.0,4643.589743589744,3947.692307692308,4488.717948717949,4447.6923076923085,4265.641025641026,4562.051282051282,4438.974358974359,4569.743589743591,4321.538461538462,4781.538461538462,4394.358974358975,4251.282051282052,4320.512820512821,4464.102564102564
3507.4048,0.5535845,0.5310676,0.33333334,0.5522388,0,0.0,0.26306978,0.0,0.0,0.0,0,0,0.0,0.0,0,0,43.0,0.0,0.0,4668.205128205129,3944.615384615385,4483.076923076924,4445.128205128206,4254.358974358975,4549.2307692307695,4432.307692307693,4484.102564102564,4298.461538461539,4684.102564102564,4289.74358974359,4229.74358974359,4289.74358974359,4447.6923076923085
3507.655,0.45946905,0.5310676,0.33333334,0.5522388,0,0.0,0.23936744,0.0,0.0,0.0,0,0,0.0,0.0,0,0,75.0,0.0,479.0,4636.410256410257,3937.9487179487182,4466.153846153847,4435.8974358974365,4241.025641025642,4535.8974358974365,4428.205128205129,4323.589743589744,4153.846153846154,4503.076923076924,4160.000000000001,4204.102564102564,4152.820512820514,4440.000000000001
3507.9053,0.45946905,0.5310676,0.33333334,0.5522388,0,0.0,0.0,0.0,0.007677135,0.0,0,0,0.0,0.0,0,0,107.0,0.0,479.0,4623.589743589744,3941.0256410256416,4478.974358974359,4440.512820512821,4241.025641025642,4531.282051282052,4434.358974358975,4392.307692307693,4265.641025641026,4553.333333333334,4185.128205128206,4209.74358974359,4242.564102564103,4446.153846153847
3508.1555,0.43882295,0.5310676,0.33333334,0.5522388,0,0.0,0.0,0.0,0.007308482,0.0,0,0,0.0,0.0,0,0,10.0,0.0,8033.0,4671.794871794872,3946.1538461538466,4488.717948717949,4443.589743589744,4244.102564102564,4534.871794871796,4447.6923076923085,4545.128205128206,4313.846153846154,4703.589743589744,4343.589743589744,4238.974358974359,4297.948717948719,4444.615384615385
3508.4136,0.43882295,0.5310676,0.33333334,0.5522388,0,0.0,0.0,0.0,0.007888693,0.0,0,0,0.0,0.0,0,0,42.0,0.0,0.0,4643.076923076924,3937.435897435898,4483.589743589744,4440.000000000001,4241.025641025642,4527.179487179488,4442.051282051282,4490.256410256411,4313.846153846154,4662.051282051282,4300.512820512821,4229.74358974359,4297.948717948719,4437.948717948719
3508.6638,0.42042297,0.5310676,0.33333334,0.5522388,0,0.0,0.0,0.0,0.0057251197,0.0,0,0,0.0,0.0,0,0,74.0,0.0,8033.0,4645.641025641026,3940.5128205128212,4489.2307692307695,4436.410256410257,4245.128205128206,4533.333333333334,4447.6923076923085,4589.2307692307695,4329.2307692307695,4755.8974358974365,4380.000000000001,4235.8974358974365,4304.615384615385,4452.820512820514
3508.9138,0.42042297,0.5310676,0.33333334,0.5522388,0,0.0,0.10754171,0.0,0.0,0.0,0,0,0.0,0.0,0,0,106.0,0.0,8033.0,4642.564102564103,3935.8974358974365,4495.384615384616,4434.871794871796,4248.717948717949,4534.871794871796,4445.641025641026,4563.076923076924,4325.641025641026,4647.179487179488,4332.307692307693,4222.564102564103,4327.6923076923085,4456.923076923077
3509.164,0.35204062,0.5310676,0.33333334,0.5522388,0,0.0,0.130609,0.0,0.0,0.0,0,0,0.0,0.0,0,0,9.0,0.0,4322.0,4664.102564102564,3941.538461538462,4512.307692307693,4443.076923076924,4262.564102564103,4557.948717948719,4449.743589743591,4745.128205128206,4427.6923076923085,4944.615384615386,4580.512820512821,4271.794871794872,4425.128205128206,4494.871794871796
3509.4143,0.35204062,0.5310676,0.33333334,0.5522388,0,0.0,0.0,0.0,0.0054959343,0.0,0,0,0.0,0.0,0,0,41.0,0.0,0.0,4613.333333333334,3931.7948717948725,4485.128205128206,4442.051282051282,4255.384615384616,4548.205128205129,4439.48717948718,4534.358974358975,4266.153846153847,4614.871794871796,4334.358974358975,4220.512820512821,4272.820512820514,4466.666666666667
3509.6646,0.3026344,0.5310676,0.33333334,0.5522388,0,0.0,0.0,0.0,0.004151041,0.0,0,0,0.0,0.0,0,0,73.0,0.0,4195.0,4585.128205128206,3928.205128205129,4480.000000000001,4435.384615384616,4254.358974358975,4548.717948717949,4438.974358974359,4432.820512820514,4240.512820512821,4545.641025641026,4235.384615384616,4204.615384615385,4205.641025641026,4481.538461538462
3509.9148,0.3026344,0.5310676,0.33333334,0.5522388,0,0.0,0.0,0.0,0.0045157615,0.0,0,0,0.0,0.0,0,0,105.0,0.0,758.0,4592.307692307693,3926.666666666667,4468.205128205129,4434.358974358975,4265.128205128206,4563.076923076924,4426.153846153847,4506.153846153847,4270.769230769231,4563.076923076924,4312.307692307693,4217.948717948719,4274.871794871796,4465.641025641026
3510.165,0.23622213,0.5310676,0.33333334,0.5522388,0,0.0,0.0,0.0,0.004126929,0.0,0,0,0.0,0.0,0,0,8.0,0.0,8033.0,4551.282051282052,3922.564102564103,4456.410256410257,4430.769230769231,4260.000000000001,4560.512820512821,4426.153846153847,4341.538461538462,4207.179487179487,4396.923076923077,4135.8974358974365,4188.205128205129,4160.512820512821,4440.000000000001
3510.4153,0.23622213,0.5310676,0.33333334,0.5522388,0,0.0,0.0,0.0,0.0030696825,0.0,0,0,0.0,0.0,0,0,40.0,0.0,0.0,4552.307692307693,3925.6410256410263,4469.2307692307695,4433.333333333334,4260.512820512821,4556.410256410257,4429.743589743591,4457.435897435898,4264.102564102564,4476.410256410257,4255.8974358974365,4212.820512820514,4256.410256410257,4477.435897435898
3510.6655,0.24703744,0.5310676,0.33333334,0.5522388,0,0.0,0.0,0.0,0.0037072755,0.0,0,0,0.0,0.0,0,0,72.0,0.0,8033.0,4602.564102564103,3928.205128205129,4476.410256410257,4440.000000000001,4265.128205128206,4567.179487179488,4434.871794871796,4573.846153846154,4377.948717948719,4742.564102564103,4427.179487179487,4247.179487179487,4355.8974358974365,4465.128205128206
3510.9155,0.24703744,0.5310676,0.33333334,0.5522388,0,0.0,0.0,0.0,0.0040776287,0.0,0,0,0.0,0.0,0,0,104.0,0.0,3313.0,4561.025641025642,3913.8461538461543,4440.512820512821,4427.6923076923085,4251.282051282052,4546.153846153847,4413.333333333334,4184.102564102564,4131.282051282052,4210.769230769231,4051.2820512820517,4171.794871794872,4115.384615384616,4434.871794871796
3511.1658,0.23938055,0.5310676,0.33333334,0.5522388,0,0.0,0.0,0.0,0.0033744455,0.0,0,0,0.0,0.0,0,0,7.0,0.0,5441.0,4549.743589743591,3920.5128205128212,4445.641025641026,4434.358974358975,4262.051282051282,4564.615384615385,4412.307692307693,4310.769230769231,4238.461538461539,4425.641025641026,4172.307692307693,4202.051282051282,4187.179487179487,4423.589743589744
3511.416,0.23938055,0.5310676,0.33333334,0.5522388,0,0.0,0.0,0.0,0.0027964022,0.0,0,0,0.0,0.0,0,0,39.0,0.0,0.0,4621.025641025642,3916.9230769230776,4455.384615384616,4430.256410256411,4266.666666666667,4567.179487179488,4415.8974358974365,4498.461538461539,4334.358974358975,4661.025641025642,4378.974358974359,4244.102564102564,4291.282051282052,4438.974358974359
3511.6663,0.24745376,0.5310676,0.33333334,0.5522388,0,0.0,0.0,0.0,0.0032489933,0.0,0,0,0.0,0.0,0,0,71.0,0.0,5426.0,4605.128205128206,3916.410256410257,4463.076923076924,4426.153846153847,4259.48717948718,4562.051282051282,4415.8974358974365,4468.717948717949,4343.076923076924,4666.153846153847,4383.076923076924,4245.641025641026,4298.461538461539,4466.666666666667
3511.9165,0.24745376,0.5310676,0.33333334,0.5522388,0,0.0,0.0,0.0,0.002453525,0.0,0,0,0.0,0.0,0,0,103.0,0.0,452.0,4616.923076923077,3925.6410256410263,4481.025641025642,4437.948717948719,4267.6923076923085,4570.769230769231,4422.051282051282,4525.128205128206,4393.333333333334,4759.48717948718,4504.615384615385,4267.179487179487,4360.000000000001,4474.358974358975
3512.1667,0.2147028,0.5310676,0.33333334,0.5522388,0,0.0,0.0,0.0,0.0033091058,0.0,0,0,0.0,0.0,0,0,6.0,0.0,247.0,4681.538461538462,3929.2307692307695,4485.128205128206,4442.051282051282,4267.179487179487,4568.717948717949,4430.769230769231,4677.948717948719,4425.641025641026,4887.6923076923085,4656.410256410257,4297.948717948719,4400.000000000001,4470.256410256411
3512.417,0.2147028,0.5310676,0.33333334,0.5522388,0,0.0,0.05599365,0.0,0.0,0.0,0,0,0.0,0.0,0,0,38.0,0.0,0.0,4655.8974358974365,3928.717948717949,4488.205128205129,4437.948717948719,4261.025641025642,4562.051282051282,4431.794871794872,4507.6923076923085,4367.179487179487,4788.717948717949,4581.538461538462,4287.179487179487,4350.769230769231,4478.974358974359
3512.6672,0.21715662,0.5310676,0.33333334,0.5522388,0,0.0,0.0,0.0,0.003973408,0.0,0,0,0.0,0.0,0,0,70.0,0.0,242.0,4622.051282051282,3926.666666666667,4466.153846153847,4426.666666666667,4250.769230769231,4552.307692307693,4425.128205128206,4057.9487179487182,4053.8461538461543,4250.769230769231,4104.615384615385,4195.384615384616,4049.23076923077,4338.461538461539
3512.9175,0.21715662,0.5310676,0.33333334,0.5522388,0,0.0,0.0,0.0,0.0049006557,0.0,0,0,0.0,0.0,0,0,102.0,0.0,8033.0,4653.846153846154,3931.7948717948725,4474.871794871796,4436.923076923077,4267.6923076923085,4571.794871794872,4416.410256410257,4353.333333333334,4302.051282051282,4651.794871794872,4453.846153846154,4264.615384615385,4253.846153846154,4411.282051282052
3513.1675,0.22253506,0.5310676,0.33333334,0.5522388,0,0.0,0.0,0.0,0.0035768605,0.0,0,0,0.0,0.0,0,0,5.0,0.0,402.0,4621.025641025642,3926.1538461538466,4468.205128205129,4435.8974358974365,4264.615384615385,4564.615384615385,4412.307692307693,4272.820512820514,4191.282051282052,4534.871794871796,4350.769230769231,4246.153846153847,4203.589743589744,4432.820512820514
3513.4177,0.22253506,0.5310676,0.33333334,0.5522388,0,0.0,0.0,0.0,0.0026075651,0.0,0,0,0.0,0.0,0,0,37.0,0.0,0.0,4625.128205128206,3929.7435897435903,4475.8974358974365,4434.871794871796,4265.641025641026,4560.000000000001,4415.384615384616,4294.871794871796,4323.589743589744,4648.717948717949,4444.615384615385,4263.076923076924,4272.307692307693,4466.666666666667
3513.668,0.18780683,0.5310676,0.33333334,0.5522388,0,0.0,0.0,0.0,0.0026983474,0.0,0,0,0.0,0.0,0,0,69.0,0.0,402.0,4665.128205128206,3926.666666666667,4488.717948717949,4435.8974358974365,4258.461538461539,4556.923076923077,4423.076923076924,4444.102564102564,4294.358974358975,4720.512820512821,4542.051282051282,4276.923076923077,4286.666666666667,4463.076923076924
3513.9182,0.18780683,0.5310676,0.33333334,0.5522388,0,0.0,0.0,0.0,0.002945633,0.0,0,0,0.0,0.0,0,0,101.0,0.0,852.0,4651.282051282052,3940.5128205128212,4494.871794871796,4443.589743589744,4266.153846153847,4562.051282051282,4424.102564102564,4405.128205128206,4341.025641025642,4855.384615384616,4628.717948717949,4294.871794871796,4294.871794871796,4483.076923076924
3514.1685,0.15256265,0.5310676,0.33333334,0.5522388,0,0.0,0.0,0.0,0.003668109,0.0,0,0,0.0,0.0,0,0,4.0,0.0,407.0,4626.153846153847,3932.307692307693,4485.128205128206,4434.871794871796,4256.410256410257,4551.282051282052,4425.641025641026,4262.564102564103,4202.564102564103,4613.846153846154,4444.615384615385,4261.538461538462,4197.435897435898,4477.435897435898
3514.4187,0.15256265,0.5310676,0.33333334,0.5522388,0,0.0,0.0,0.0,0.0024534105,0.0,0,0,0.0,0.0,0,0,36.0,0.0,0.0,4647.179487179488,3932.307692307693,4475.8974358974365,4436.410256410257,4264.615384615385,4561.025641025642,4407.6923076923085,4176.923076923077,4236.410256410257,4661.025641025642,4440.000000000001,4266.666666666667,4193.846153846154,4467.179487179487
3514.669,0.111368924,0.5310676,0.33333334,0.5522388,0,0.0,0.0,0.0,0.0026582757,0.0,0,0,0.0,0.0,0,0,68.0,0.0,407.0,4625.641025641026,3923.076923076924,4463.589743589744,4435.384615384616,4259.48717948718,4551.282051282052,4403.076923076924,4196.410256410257,4167.6923076923085,4603.076923076924,4402.051282051282,4258.461538461539,4152.820512820514,4467.6923076923085
3514.9192,0.111368924,0.5310676,0.33333334,0.5522388,0,0.0,0.0,0.0,0.0022962233,0.0,0,0,0.0,0.0,0,0,100.0,0.0,3409.0,4584.102564102564,3923.076923076924,4443.589743589744,4432.307692307693,4252.820512820514,4548.205128205129,4401.025641025642,3886.1538461538466,4025.1282051282055,4390.769230769231,4172.307692307693,4221.025641025642,3999.48717948718,4431.794871794872
3515.1692,0.09164,0.5310676,0.33333334,0.5522388,0,0.0,0.0,0.0,0.00201581,0.0,0,0,0.0,0.0,0,0,3.0,0.0,399.0,4645.128205128206,3931.7948717948725,4465.128205128206,4437.435897435898,4260.000000000001,4555.384615384616,4412.307692307693,4194.871794871796,4185.641025641026,4646.666666666667,4449.743589743591,4272.307692307693,4151.282051282052,4436.410256410257
3515.4194,0.09164,0.5310676,0.33333334,0.5522388,0,0.0,0.0,0.0,0.0027029838,0.0,0,0,0.0,0.0,0,0,35.0,0.0,0.0,4624.615384615385,3932.820512820513,4462.051282051282,4445.128205128206,4265.128205128206,4560.000000000001,4418.974358974359,4106.153846153847,4178.974358974359,4663.076923076924,4444.102564102564,4270.256410256411,4161.025641025642,4454.358974358975
3515.6697,0.08281902,0.5310676,0.33333334,0.5522388,0,0.0,0.0,0.0,0.0025148378,0.0,0,0,0.0,0.0,0,0,67.0,0.0,396.0,4653.333333333334,3935.3846153846157,4482.051282051282,4444.615384615385,4259.48717948718,4556.923076923077,4422.051282051282,4360.000000000001,4240.000000000001,4762.564102564103,4612.307692307693,4303.589743589744,4223.076923076924,4494.871794871796
3515.92,0.08281902,0.5310676,0.33333334,0.5522388,0,0.0,0.0,0.0,0.002431521,0.0,0,0,0.0,0.0,0,0,99.0,0.0,433.0,4631.282051282052,3933.8461538461543,4471.282051282052,4444.102564102564,4255.384615384616,4554.358974358975,4422.564102564103,4126.666666666667,4170.256410256411,4672.307692307693,4495.384615384616,4288.717948717949,4163.076923076924,4478.974358974359
3516.1702,0.055638477,0.5310676,0.33333334,0.5522388,0,0.0,0.0,0.0,0.002410648,0.0,0,0,0.0,0.0,0,0,2.0,0.0,430.0,4673.846153846154,3940.0000000000005,4469.2307692307695,4442.051282051282,4269.74358974359,4566.666666666667,4414.871794871796,4305.641025641026,4215.384615384616,4749.743589743591,4611.282051282052,4307.179487179487,4185.128205128206,4495.8974358974365
3516.4204,0.055638477,0.5310676,0.33333334,0.5522388,0,0.0,0.02273223,0.0,0.0,0.0,0,0,0.0,0.0,0,0,34.0,0.0,0.0,4660.512820512821,3935.3846153846157,4474.871794871796,4438.461538461539,4257.948717948719,4556.923076923077,4429.2307692307695,4150.256410256411,4164.615384615385,4692.820512820514,4546.666666666667,4293.333333333334,4157.948717948719,4497.948717948719
3516.6707,0.06606982,0.5310676,0.33333334,0.5522388,0,0.0,0.027674679,0.0,0.0,0.0,0,0,0.0,0.0,0,0,66.0,0.0,430.0,4631.794871794872,3936.410256410257,4464.615384615385,4441.025641025642,4266.153846153847,4562.564102564103,4429.2307692307695,4071.7948717948725,4114.871794871796,4598.461538461539,4467.6923076923085,4272.307692307693,4060.5128205128212,4476.923076923077
3516.921,0.06606982,0.5310676,0.33333334,0.5522388,0,0.0,0.0,0.0,0.0018862173,0.0,0,0,0.0,0.0,0,0,98.0,0.0,8033.0,4643.589743589744,3935.3846153846157,4461.025641025642,4438.461538461539,4265.128205128206,4564.615384615385,4420.000000000001,4061.0256410256416,4103.076923076924,4634.871794871796,4469.2307692307695,4275.384615384616,4094.358974358975,4484.615384615385
3517.1711,0.0067292284,0.5310676,0.33333334,0.5522388,0,0.0,0.01940377,0.0,0.0,0.0,0,0,0.0,0.0,0,0,1.0,0.0,321.0,4633.846153846154,3938.9743589743593,4449.743589743591,4455.384615384616,4271.794871794872,4570.256410256411,4418.974358974359,4046.666666666667,4150.769230769231,4611.794871794872,4454.871794871796,4272.820512820514,4090.2564102564106,4472.307692307693
3517.4211,0.0067292284,0.5310676,0.33333334,0.5522388,0,0.0,0.0,0.0,0.0020227209,0.0,0,0,0.0,0.0,0,0,33.0,0.0,0.0,4578.974358974359,3928.205128205129,4425.128205128206,4441.538461538462,4252.820512820514,4557.435897435898,4400.000000000001,3740.0000000000005,3949.2307692307695,4266.153846153847,4104.615384615385,4210.769230769231,3913.333333333334,4452.307692307693
3517.6714,0.01777366,0.5310676,0.33333334,0.5522388,0,0.0,0.0,0.0,0.0028382142,0.0,0,0,0.0,0.0,0,0,65.0,0.0,318.0,4587.6923076923085,3931.7948717948725,4416.410256410257,4444.102564102564,4261.025641025642,4562.564102564103,4398.974358974359,3793.8461538461543,4006.666666666667,4344.615384615385,4162.564102564103,4221.538461538462,3965.6410256410263,4427.179487179487
3517.9216,0.01777366,0.5310676,0.33333334,0.5522388,0,0.0,0.0,0.0,0.0023040283,0.0,0,0,0.0,0.0,0,0,97.0,0.0,903.0,4588.717948717949,3934.358974358975,4433.846153846154,4446.153846153847,4266.153846153847,4566.153846153847,4413.846153846154,3944.615384615385,4063.076923076924,4521.025641025642,4339.48717948718,4251.282051282052,4039.48717948718,4447.179487179487
3518.1719,0.027037371,0.5310676,0.33333334,0.5522388,0,0.0,0.0,0.0,0.0010913026,0.0,0,0,0.0,0.0,0,0,0.0,0.0,481.0,4570.256410256411,3935.8974358974365,4431.282051282052,4448.717948717949,4265.641025641026,4567.6923076923085,4424.615384615385,3918.9743589743593,4098.461538461539,4480.000000000001,4281.025641025642,4242.051282051282,4051.2820512820517,4426.666666666667
3518.422,0.027037371,0.5310676,0.33333334,0.5522388,0,0.0,0.0,0.0,0.0024231598,0.0,0,0,0.0,0.0,0,0,32.0,0.0,0.0,4570.769230769231,3936.410256410257,4442.564102564103,4448.205128205129,4266.666666666667,4563.076923076924,4424.102564102564,3958.461538461539,4064.615384615385,4502.051282051282,4318.974358974359,4250.769230769231,4054.358974358975,4436.923076923077
3518.6724,0.026399992,0.5310676,0.33333334,0.5522388,0,0.0,0.0,0.0,0.0020581044,0.0,0,0,0.0,0.0,0,0,64.0,0.0,479.0,4618.461538461539,3937.435897435898,4447.6923076923085,4442.564102564103,4273.333333333334,4567.6923076923085,4424.615384615385,4195.8974358974365,4215.384615384616,4728.205128205129,4547.6923076923085,4289.74358974359,4170.256410256411,4459.48717948718
3518.9226,0.026399992,0.5310676,0.33333334,0.5522388,0,0.0,0.0,0.0,0.0020231078,0.0,0,0,0.0,0.0,0,0,96.0,0.0,3546.0,4575.8974358974365,3936.410256410257,4432.307692307693,4440.512820512821,4272.820512820514,4566.153846153847,4427.6923076923085,4036.9230769230776,4084.615384615385,4552.307692307693,4358.461538461539,4257.435897435898,4059.48717948718,4433.333333333334
3519.1729,0.033004485,0.5310676,0.33333334,0.5522388,0,0.0,0.0,0.0,0.0016568297,0.0,0,0,0.0,0.0,0,0,128.0,0.0,3546.0,4564.102564102564,3934.8717948717954,4434.871794871796,4437.948717948719,4273.846153846154,4573.333333333334,4425.641025641026,3978.9743589743593,4045.6410256410263,4455.384615384616,4285.128205128206,4242.564102564103,4032.820512820513,4438.461538461539
3519.4229,0.033004485,0.5310676,0.33333334,0.5522388,0,0.0,0.0,0.0,0.0021823996,0.0,0,0,0.0,0.0,0,0,31.0,0.0,0.0,4630.256410256411,3937.435897435898,4446.666666666667,4442.564102564103,4288.717948717949,4590.256410256411,4431.794871794872,4378.974358974359,4252.307692307693,4814.358974358975,4583.076923076924,4309.743589743591,4204.102564102564,4450.256410256411
3519.673,0.02746302,0.5310676,0.33333334,0.5522388,0,0.0,0.0,0.0,0.003453279,0.0,0,0,0.0,0.0,0,0,63.0,0.0,0.0,4536.923076923077,3924.1025641025644,4400.512820512821,4436.923076923077,4285.128205128206,4586.153846153847,4414.871794871796,3826.1538461538466,3907.1794871794878,4253.846153846154,4054.358974358975,4210.769230769231,3878.9743589743593,4414.358974358975
3519.9233,0.02746302,0.5310676,0.33333334,0.5522388,0,0.0,0.0,0.0,0.0047403863,0.0,0,0,0.0,0.0,0,0,95.0,0.0,417.0,4522.051282051282,3928.205128205129,4399.48717948718,4435.384615384616,4289.74358974359,4590.256410256411,4406.666666666667,3830.7692307692314,3973.333333333334,4333.333333333334,4085.6410256410263,4214.871794871796,3938.9743589743593,4414.871794871796
3520.1736,0.080263,0.5310676,0.33333334,0.5522388,0,0.0,0.0,0.0,0.0013153382,0.0,0,0,0.0,0.0,0,0,127.0,0.0,417.0,4567.179487179488,3929.2307692307695,4405.641025641026,4433.846153846154,4285.641025641026,4578.974358974359,4415.8974358974365,3989.7435897435903,4053.8461538461543,4433.846153846154,4161.538461538462,4231.794871794872,4032.307692307693,4409.2307692307695
3520.4238,0.080263,0.5310676,0.33333334,0.5522388,0,0.0,0.0,0.0,0.003542389,0.0,0,0,0.0,0.0,0,0,30.0,0.0,0.0,4551.794871794872,3934.8717948717954,4411.282051282052,4437.435897435898,4274.358974358975,4573.333333333334,4422.051282051282,4016.9230769230776,4077.9487179487187,4484.102564102564,4194.358974358975,4236.410256410257,4012.307692307693,4423.076923076924
3520.674,0.097970165,0.5310676,0.33333334,0.5522388,0,0.0,0.0,0.0,0.001864263,0.0,0,0,0.0,0.0,0,0,62.0,0.0,0.0,4547.179487179488,3934.8717948717954,4434.358974358975,4439.48717948718,4272.307692307693,4567.6923076923085,4420.000000000001,4106.153846153847,4096.410256410257,4625.641025641026,4303.589743589744,4258.461538461539,4063.076923076924,4443.589743589744
3520.9243,0.097970165,0.5310676,0.33333334,0.5522388,0,0.0,0.0,0.0,0.0017569378,0.0,0,0,0.0,0.0,0,0,94.0,0.0,8033.0,4639.48717948718,3935.8974358974365,4460.512820512821,4440.512820512821,4272.820512820514,4571.282051282052,4429.743589743591,4466.153846153847,4283.589743589744,4844.615384615386,4557.435897435898,4304.102564102564,4227.179487179487,4485.641025641026
3521.1746,0.0602847,0.5310676,0.33333334,0.5522388,0,0.0,0.0,0.0,0.0024086984,0.0,0,0,0.0,0.0,0,0,126.0,0.0,8033.0,4595.384615384616,3934.358974358975,4448.717948717949,4442.564102564103,4273.846153846154,4568.205128205129,4426.666666666667,4233.846153846154,4132.307692307693,4688.717948717949,4364.102564102564,4267.6923076923085,4108.205128205129,4457.435897435898
3521.4246,0.0602847,0.5310676,0.33333334,0.5522388,0,0.0,0.0,0.0,0.004973926,0.0,0,0,0.0,0.0,0,0,29.0,0.0,0.0,4612.820512820514,3926.666666666667,4453.846153846154,4439.48717948718,4260.512820512821,4554.358974358975,4427.6923076923085,4324.102564102564,4212.820512820514,4649.2307692307695,4365.641025641026,4265.128205128206,4157.435897435898,4532.307692307693
3521.6748,0.062336177,0.5310676,0.33333334,0.5522388,0,0.0,0.0,0.0,0.00286164,0.0,0,0,0.0,0.0,0,0,61.0,0.0,0.0,4650.769230769231,3937.9487179487182,4466.153846153847,4443.589743589744,4269.74358974359,4563.076923076924,4441.538461538462,4397.948717948719,4229.2307692307695,4814.871794871796,4493.333333333334,4290.769230769231,4197.948717948719,4482.564102564103
3521.925,0.062336177,0.5310676,0.33333334,0.5522388,0,0.0,0.0,0.0,0.0037024873,0.0,0,0,0.0,0.0,0,0,93.0,0.0,870.0,4644.102564102564,3933.8461538461543,4466.666666666667,4440.000000000001,4260.512820512821,4554.358974358975,4440.000000000001,4427.6923076923085,4229.74358974359,4745.641025641026,4431.282051282052,4276.923076923077,4190.769230769231,4483.076923076924
3522.1753,0.061062552,0.5310676,0.33333334,0.5522388,0,0.0,0.0,0.0,0.0043218085,0.0,0,0,0.0,0.0,0,0,125.0,0.0,870.0,4597.948717948719,3929.2307692307695,4466.666666666667,4437.435897435898,4257.435897435898,4544.615384615385,4449.743589743591,4292.820512820514,4127.179487179487,4676.923076923077,4342.051282051282,4260.512820512821,4110.769230769231,4489.2307692307695
3522.4255,0.061062552,0.5310676,0.33333334,0.5522388,0,0.0,0.0,0.0,0.004151174,0.0,0,0,0.0,0.0,0,0,28.0,0.0,0.0,4644.615384615385,3933.8461538461543,4479.48717948718,4440.000000000001,4268.205128205129,4557.435897435898,4456.923076923077,4592.307692307693,4332.307692307693,4839.48717948718,4578.974358974359,4296.923076923077,4301.538461538462,4516.923076923077
3522.6758,0.06262164,0.5310676,0.33333334,0.5522388,0,0.0,0.0,0.0,0.023799198,0.0,0,0,0.0,0.0,0,0,60.0,0.0,0.0,4635.8974358974365,3938.461538461539,4462.051282051282,4442.564102564103,4269.74358974359,4558.974358974359,4461.025641025642,3643.589743589744,3872.307692307693,3765.1282051282055,3511.794871794872,4099.48717948718,3792.307692307693,3922.0512820512827
3522.926,0.06262164,0.5310676,0.33333334,0.5522388,0,0.0,0.0,0.0,0.016253367,0.0,0,0,0.0,0.0,0,0,92.0,0.0,3472.0,4636.410256410257,3942.0512820512827,4501.025641025642,4443.076923076924,4270.256410256411,4555.8974358974365,4471.282051282052,4563.589743589744,4426.666666666667,4827.179487179488,4482.564102564103,4287.179487179487,4343.589743589744,4290.256410256411
3523.1763,0.121885754,0.5310676,0.33333334,0.5522388,0,0.0,0.0,0.0,0.01111985,0.0,0,0,0.0,0.0,0,0,124.0,0.0,3472.0,4682.051282051282,3931.7948717948725,4521.025641025642,4434.871794871796,4255.8974358974365,4545.128205128206,4481.538461538462,5097.435897435898,4678.461538461539,5438.974358974359,5199.487179487181,4418.461538461539,4701.538461538462,4603.076923076924
3523.4265,0.121885754,0.5310676,0.33333334,0.5522388,0,0.0,0.0,0.0,0.012857676,0.0,0,0,0.0,0.0,0,0,27.0,0.0,0.0,4673.846153846154,3946.666666666667,4526.666666666667,4440.000000000001,4259.48717948718,4550.769230769231,4485.641025641026,5292.307692307693,4766.153846153847,5734.3589743589755,5493.333333333334,4476.410256410257,4848.717948717949,4790.769230769231
3523.6765,0.20032209,0.5310676,0.33333334,0.5522388,0,0.0,0.0,0.0,0.025557034,0.0,0,0,0.0,0.0,0,0,59.0,0.0,0.0,4662.564102564103,3946.666666666667,4523.076923076924,4441.025641025642,4258.461538461539,4549.743589743591,4493.333333333334,5224.615384615386,4591.794871794872,5577.948717948719,5387.179487179488,4445.128205128206,4690.769230769231,4780.000000000001
3523.9268,0.20032209,0.5310676,0.33333334,0.5522388,0,0.0,0.0,0.0,0.030927597,0.0,0,0,0.0,0.0,0,0,91.0,0.0,409.0,4708.717948717949,3947.692307692308,4521.538461538462,4441.538461538462,4266.666666666667,4554.358974358975,4504.102564102564,5186.666666666667,4565.128205128206,5623.589743589744,5429.2307692307695,4453.846153846154,4639.48717948718,4817.435897435898
3524.177,0.22148271,0.5310676,0.33333334,0.5522388,0,0.0,0.0,0.0,0.033853374,0.0,0,0,0.0,0.0,0,0,123.0,0.0,409.0,4732.307692307693,3945.6410256410263,4527.6923076923085,4441.538461538462,4257.948717948719,4549.2307692307695,4506.153846153847,5186.153846153847,4462.564102564103,5511.794871794872,5360.512820512821,4431.794871794872,4546.153846153847,4792.307692307693
3524.4272,0.22148271,0.5310676,0.33333334,0.5522388,0,0.0,0.0,0.0,0.0147390375,0.0,0,0,0.0,0.0,0,0,26.0,0.0,0.0,4708.717948717949,3946.1538461538466,4522.051282051282,4442.051282051282,4263.076923076924,4554.871794871796,4515.8974358974365,4976.410256410257,4336.410256410257,5346.153846153847,5177.435897435898,4394.871794871796,4395.384615384616,4748.205128205129
3524.6775,0.35246423,0.5310676,0.33333334,0.5522388,0,0.0,0.0,0.0,0.011203495,0.0,0,0,0.0,0.0,0,0,58.0,0.0,0.0,4737.435897435898,3934.8717948717954,4502.051282051282,4430.256410256411,4255.8974358974365,4545.128205128206,4519.48717948718,4914.358974358975,4263.589743589744,5062.051282051283,4916.410256410257,4354.871794871796,4313.333333333334,4682.051282051282
3524.9277,0.35246423,0.5310676,0.33333334,0.5522388,0,0.0,0.0,0.0,0.0074033313,0.0,0,0,0.0,0.0,0,0,90.0,0.0,8033.0,4716.410256410257,3945.1282051282055,4513.333333333334,4436.923076923077,4251.794871794872,4548.205128205129,4522.051282051282,4787.179487179488,4194.358974358975,5042.051282051283,4922.051282051283,4350.256410256411,4239.48717948718,4671.282051282052
3525.178,0.42430595,0.5310676,0.33333334,0.5522388,0,0.0,0.0,0.0,0.0044221506,0.0,0,0,0.0,0.0,0,0,122.0,0.0,8033.0,4701.538461538462,3949.2307692307695,4515.8974358974365,4441.538461538462,4254.358974358975,4546.666666666667,4524.615384615385,4868.205128205129,4247.6923076923085,4971.282051282052,4827.6923076923085,4342.564102564103,4256.923076923077,4673.333333333334
3525.4282,0.42430595,0.5310676,0.33333334,0.5522388,0,0.0,0.0,0.0,0.0036211116,0.0,0,0,0.0,0.0,0,0,25.0,0.0,0.0,4728.717948717949,3937.9487179487182,4497.435897435898,4435.8974358974365,4243.076923076924,4541.538461538462,4521.025641025642,4587.179487179488,4125.128205128206,4772.307692307693,4624.615384615385,4301.025641025642,4151.282051282052,4634.358974358975
3525.6782,0.41133416,0.5310676,0.33333334,0.5522388,0,0.0,0.0,0.0,0.0032857885,0.0,0,0,0.0,0.0,0,0,57.0,0.0,0.0,4721.025641025642,3947.692307692308,4517.435897435898,4444.615384615385,4245.641025641026,4543.076923076924,4520.512820512821,4782.051282051282,4237.948717948719,4856.410256410257,4717.948717948719,4329.743589743591,4233.846153846154,4632.307692307693
3525.9285,0.41133416,0.5310676,0.33333334,0.5522388,0,0.0,0.0,0.0,0.0025000325,0.0,0,0,0.0,0.0,0,0,89.0,0.0,918.0,4695.8974358974365,3947.692307692308,4513.846153846154,4445.641025641026,4246.153846153847,4542.051282051282,4516.923076923077,4637.435897435898,4231.282051282052,4797.948717948719,4662.564102564103,4310.256410256411,4222.051282051282,4608.205128205129
3526.1787,0.35177448,0.5310676,0.33333334,0.5522388,0,0.0,0.0,0.0,0.0024733802,0.0,0,0,0.0,0.0,0,0,121.0,0.0,918.0,4705.641025641026,3946.1538461538466,4501.538461538462,4442.051282051282,4242.051282051282,4545.128205128206,4521.538461538462,4710.256410256411,4235.8974358974365,4761.538461538462,4645.641025641026,4314.358974358975,4229.74358974359,4586.666666666667
3526.429,0.35177448,0.5310676,0.33333334,0.5522388,0,0.0,0.0,0.0,0.0033051928,0.0,0,0,0.0,0.0,0,0,24.0,0.0,0.0,4677.435897435898,3937.435897435898,4491.282051282052,4435.384615384616,4236.410256410257,4536.923076923077,4521.025641025642,4441.538461538462,4126.153846153847,4526.666666666667,4432.820512820514,4271.794871794872,4096.923076923077,4586.666666666667
3526.6792,0.31351727,0.5310676,0.33333334,0.5522388,0,0.0,0.0,0.0,0.0035025459,0.0,0,0,0.0,0.0,0,0,56.0,0.0,0.0,4663.589743589744,3947.1794871794878,4493.846153846154,4442.564102564103,4239.48717948718,4539.48717948718,4524.102564102564,4477.948717948719,4152.820512820514,4531.282051282052,4414.358974358975,4271.282051282052,4147.179487179487,4564.102564102564
3526.9294,0.31351727,0.5310676,0.33333334,0.5522388,0,0.0,0.0,0.0,0.0043822345,0.0,0,0,0.0,0.0,0,0,88.0,0.0,3546.0,4737.435897435898,3951.7948717948725,4516.923076923077,4447.6923076923085,4247.6923076923085,4553.846153846154,4525.128205128206,4746.666666666667,4420.512820512821,5060.512820512821,4872.307692307693,4352.820512820514,4390.256410256411,4581.025641025642
3527.1797,0.26577982,0.5310676,0.33333334,0.5522388,0,0.0,0.0,0.0,0.0045814975,0.0,0,0,0.0,0.0,0,0,120.0,0.0,3546.0,4756.923076923077,3947.692307692308,4529.743589743591,4449.2307692307695,4245.641025641026,4546.666666666667,4524.615384615385,4928.717948717949,4520.000000000001,5268.717948717949,5069.2307692307695,4396.923076923077,4478.461538461539,4666.153846153847
3527.43,0.26577982,0.5310676,0.33333334,0.5522388,0,0.0,0.0,0.0,0.0033534234,0.0,0,0,0.0,0.0,0,0,23.0,0.0,0.0,4685.128205128206,3945.1282051282055,4508.717948717949,4444.102564102564,4240.512820512821,4542.564102564103,4534.871794871796,4611.282051282052,4340.000000000001,5005.641025641026,4766.153846153847,4341.538461538462,4312.820512820514,4600.000000000001
3527.6802,0.2007027,0.5310676,0.33333334,0.5522388,0,0.0,0.0,0.0,0.0042276066,0.0,0,0,0.0,0.0,0,0,55.0,0.0,0.0,4737.435897435898,3945.6410256410263,4505.641025641026,4436.923076923077,4239.48717948718,4543.076923076924,4524.102564102564,4733.333333333334,4361.538461538462,5091.794871794872,4856.410256410257,4365.128205128206,4341.025641025642,4609.2307692307695
3527.9302,0.2007027,0.5310676,0.33333334,0.5522388,0,0.0,0.0,0.0,0.004372192,0.0,0,0,0.0,0.0,0,0,87.0,0.0,405.0,4727.179487179488,3949.7435897435903,4502.564102564103,4446.666666666667,4247.179487179487,4547.179487179488,4523.076923076924,4691.794871794872,4390.769230769231,5110.256410256411,4878.461538461539,4367.6923076923085,4358.461538461539,4612.307692307693
3528.1804,0.15900408,0.5310676,0.33333334,0.5522388,0,0.0,0.0,0.0,0.00395541,0.0,0,0,0.0,0.0,0,0,119.0,0.0,405.0,4683.076923076924,3950.2564102564106,4491.282051282052,4445.641025641026,4246.153846153847,4546.666666666667,4538.461538461539,4504.102564102564,4267.179487179487,4945.128205128206,4684.615384615386,4330.769230769231,4250.769230769231,4596.410256410257
3528.4307,0.15900408,0.5310676,0.33333334,0.5522388,0,0.0,0.0,0.0,0.0033442203,0.0,0,0,0.0,0.0,0,0,22.0,0.0,0.0,4654.871794871796,3947.692307692308,4457.435897435898,4445.641025641026,4247.179487179487,4551.794871794872,4520.512820512821,4389.2307692307695,4169.74358974359,4836.410256410257,4570.769230769231,4310.769230769231,4169.2307692307695,4573.333333333334
3528.681,0.12782615,0.5310676,0.33333334,0.5522388,0,0.0,0.0,0.0,0.0036391872,0.0,0,0,0.0,0.0,0,0,54.0,0.0,0.0,4555.384615384616,3946.1538461538466,4421.538461538462,4444.102564102564,4244.615384615385,4546.666666666667,4500.000000000001,4018.9743589743593,3998.461538461539,4510.256410256411,4193.846153846154,4246.153846153847,3973.333333333334,4532.820512820514
3528.9312,0.12782615,0.5310676,0.33333334,0.5522388,0,0.0,0.0,0.0,0.003115981,0.0,0,0,0.0,0.0,0,0,86.0,0.0,8033.0,4595.8974358974365,3943.076923076924,4421.538461538462,4441.025641025642,4243.076923076924,4546.666666666667,4502.564102564103,4087.1794871794878,4105.641025641026,4605.128205128206,4283.589743589744,4265.128205128206,4089.23076923077,4538.461538461539
3529.1814,0.21943365,0.5310676,0.33333334,0.5522388,0,0.0,0.0,0.0,0.00499291,0.0,0,0,0.0,0.0,0,0,118.0,0.0,8033.0,4597.948717948719,3948.717948717949,4444.615384615385,4446.666666666667,4250.769230769231,4548.717948717949,4492.820512820514,4304.615384615385,4300.512820512821,4968.717948717949,4558.974358974359,4319.48717948718,4231.282051282052,4571.794871794872
3529.4316,0.21943365,0.5310676,0.33333334,0.5522388,0,0.0,0.0,0.0,0.003144764,0.0,0,0,0.0,0.0,0,0,21.0,0.0,0.0,4569.743589743591,3941.0256410256416,4438.461538461539,4442.564102564103,4244.102564102564,4544.615384615385,4484.615384615385,3996.410256410257,4106.153846153847,4579.48717948718,4258.461538461539,4260.000000000001,4076.410256410257,4535.384615384616
3529.682,0.25924444,0.5310676,0.33333334,0.5522388,0,0.0,0.0,0.0,0.0034408693,0.0,0,0,0.0,0.0,0,0,53.0,0.0,0.0,4664.615384615386,3945.6410256410263,4464.615384615385,4446.666666666667,4251.282051282052,4549.743589743591,4491.794871794872,4285.641025641026,4337.435897435898,4984.615384615386,4634.358974358975,4334.358974358975,4274.871794871796,4546.666666666667
3529.932,0.25924444,0.5310676,0.33333334,0.5522388,0,0.0,0.0,0.0,0.0046833092,0.0,0,0,0.0,0.0,0,0,85.0,0.0,934.0,4646.153846153847,3946.1538461538466,4477.948717948719,4444.615384615385,4245.641025641026,4547.179487179488,4491.282051282052,4351.282051282052,4276.410256410257,4932.820512820514,4606.666666666667,4331.794871794872,4257.948717948719,4565.641025641026
3530.1821,0.2900501,0.5310676,0.33333334,0.5522388,0,0.0,0.0,0.0,0.0035558164,0.0,0,0,0.0,0.0,0,0,117.0,0.0,934.0,4640.000000000001,3943.076923076924,4471.282051282052,4444.615384615385,4242.564102564103,4541.025641025642,4497.948717948719,4077.9487179487187,4213.333333333334,4715.384615384616,4439.48717948718,4296.923076923077,4167.6923076923085,4548.205128205129
3530.4324,0.2900501,0.5310676,0.33333334,0.5522388,0,0.0,0.049442805,0.0,0.0,0.0,0,0,0.0,0.0,0,0,20.0,0.0,0.0,4723.589743589744,3944.1025641025644,4499.48717948718,4445.641025641026,4247.179487179487,4547.179487179488,4500.000000000001,4503.076923076924,4356.923076923077,5029.743589743591,4722.564102564103,4354.358974358975,4343.589743589744,4584.102564102564
3530.6826,0.27969846,0.5310676,0.33333334,0.5522388,0,0.0,0.0,0.0,0.003239678,0.0,0,0,0.0,0.0,0,0,52.0,0.0,0.0,4695.384615384616,3940.0000000000005,4489.743589743591,4442.051282051282,4241.025641025642,4531.794871794872,4497.435897435898,4133.333333333334,4201.538461538462,4783.076923076924,4546.666666666667,4316.410256410257,4161.538461538462,4577.948717948719
3530.9329,0.27969846,0.5310676,0.33333334,0.5522388,0,0.0,0.0,0.0,0.004588009,0.0,0,0,0.0,0.0,0,0,84.0,0.0,3523.0,4698.974358974359,3943.076923076924,4502.051282051282,4443.589743589744,4243.589743589744,4536.410256410257,4503.076923076924,4251.282051282052,4198.974358974359,4815.384615384616,4581.025641025642,4325.641025641026,4190.769230769231,4588.717948717949
3531.183,0.2592972,0.5310676,0.33333334,0.5522388,0,0.0,0.0,0.0,0.0039555156,0.0,0,0,0.0,0.0,0,0,116.0,0.0,3523.0,4743.076923076924,3933.8461538461543,4508.205128205129,4442.051282051282,4243.589743589744,4542.564102564103,4506.153846153847,4246.153846153847,4260.000000000001,4871.794871794872,4689.2307692307695,4344.615384615385,4231.794871794872,4581.538461538462
3531.4333,0.2592972,0.5310676,0.33333334,0.5522388,0,0.0,0.0,0.0,0.0040583215,0.0,0,0,0.0,0.0,0,0,19.0,0.0,0.0,4725.641025641026,3938.461538461539,4513.333333333334,4441.025641025642,4247.179487179487,4544.615384615385,4508.717948717949,4355.384615384616,4241.025641025642,4888.717948717949,4677.435897435898,4348.205128205129,4239.48717948718,4606.666666666667
3531.6836,0.24113846,0.5310676,0.33333334,0.5522388,0,0.0,0.0,0.0,0.017074186,0.0,0,0,0.0,0.0,0,0,51.0,0.0,0.0,4702.564102564103,3940.5128205128212,4513.333333333334,4434.871794871796,4343.076923076924,4669.2307692307695,4507.179487179488,4467.179487179487,4318.974358974359,5015.8974358974365,4869.743589743591,4383.589743589744,4306.666666666667,4576.923076923077
3531.9336,0.24113846,0.5310676,0.33333334,0.5522388,0,0.0,0.0,0.0,0.011696962,0.0,0,0,0.0,0.0,0,0,83.0,0.0,402.0,4708.717948717949,3937.435897435898,4493.333333333334,4431.794871794872,4332.820512820514,4647.6923076923085,4498.974358974359,4273.333333333334,4168.205128205129,4811.794871794872,4670.256410256411,4347.6923076923085,4145.641025641026,4549.743589743591
3532.1838,0.25642446,0.5310676,0.33333334,0.5522388,0,0.0,0.0,0.0,0.008461299,0.0,0,0,0.0,0.0,0,0,115.0,0.0,402.0,4670.769230769231,3933.333333333334,4482.051282051282,4434.358974358975,4315.384615384616,4624.102564102564,4490.769230769231,4028.205128205129,4034.8717948717954,4661.538461538462,4527.6923076923085,4316.410256410257,4047.1794871794878,4546.666666666667
3532.434,0.25642446,0.5310676,0.33333334,0.5522388,0,0.0,0.0,0.0,0.0057022045,0.0,0,0,0.0,0.0,0,0,18.0,0.0,0.0,4634.358974358975,3922.0512820512827,4455.384615384616,4426.153846153847,4298.974358974359,4602.564102564103,4487.179487179488,3641.538461538462,3856.9230769230776,4194.871794871796,4086.1538461538466,4228.717948717949,3841.0256410256416,4518.461538461539
3532.6843,0.30418557,0.5310676,0.33333334,0.5522388,0,0.0,0.0,0.0,0.0020837958,0.0,0,0,0.0,0.0,0,0,50.0,0.0,0.0,4672.307692307693,3932.820512820513,4466.666666666667,4441.025641025642,4310.256410256411,4610.256410256411,4486.153846153847,3883.076923076924,4033.8461538461543,4485.641025641026,4357.435897435898,4279.48717948718,4012.820512820513,4517.948717948719
3532.9346,0.30418557,0.5310676,0.33333334,0.5522388,0,0.0,0.0,0.0,0.0015396712,0.0,0,0,0.0,0.0,0,0,82.0,0.0,8033.0,4657.435897435898,3921.538461538462,4451.282051282052,4429.2307692307695,4292.820512820514,4588.205128205129,4472.307692307693,3809.7435897435903,3999.48717948718,4361.538461538462,4208.717948717949,4252.307692307693,3962.564102564103,4493.333333333334
3533.1848,0.35558364,0.5310676,0.33333334,0.5522388,0,0.0,0.0,0.0,0.0014561831,0.0,0,0,0.0,0.0,0,0,114.0,0.0,8033.0,4674.358974358975,3923.589743589744,4461.538461538462,4427.6923076923085,4288.717948717949,4588.717948717949,4475.384615384616,3809.7435897435903,4009.7435897435903,4368.205128205129,4225.641025641026,4256.923076923077,3986.1538461538466,4502.564102564103
3533.4663,0.35558364,0.5310676,0.33333334,0.5522388,0,0.0,0.0,0.0,0.00200493,0.0,0,0,0.0,0.0,0,0,21.0,0.0,0.0,4628.717948717949,3919.48717948718,4442.564102564103,4424.102564102564,4286.666666666667,4576.410256410257,4469.743589743591,3846.666666666667,3954.8717948717954,4216.410256410257,4044.1025641025644,4224.102564102564,3912.820512820513,4489.2307692307695
3533.6853,0.35643154,0.5310676,0.33333334,0.5522388,0,0.0,0.0,0.0,0.002828671,0.0,0,0,0.0,0.0,0,0,49.0,0.0,0.0,4637.948717948719,3932.307692307693,4467.6923076923085,4436.410256410257,4288.717948717949,4577.948717948719,4480.000000000001,3908.205128205129,4078.9743589743593,4418.461538461539,4262.564102564103,4270.256410256411,4048.205128205129,4515.8974358974365
3533.9668,0.35643154,0.5310676,0.33333334,0.5522388,0,0.0,0.0,0.0,0.004326909,0.0,0,0,0.0,0.0,0,1,85.0,0.0,988.0,4688.205128205129,3934.358974358975,4480.000000000001,4433.333333333334,4267.6923076923085,4563.076923076924,4484.615384615385,4413.333333333334,4241.025641025642,4664.102564102564,4457.948717948719,4303.589743589744,4211.282051282052,4535.384615384616
3534.1855,0.33740753,0.5310676,0.33333334,0.5522388,0,0.0,0.0,0.0,0.0037724776,0.0,0,0,0.0,0.0,0,1,113.0,0.0,988.0,4692.820512820514,3935.8974358974365,4492.820512820514,4434.871794871796,4258.974358974359,4560.000000000001,4494.358974358975,4219.48717948718,4198.974358974359,4663.589743589744,4454.871794871796,4310.769230769231,4135.384615384616,4544.615384615385
3534.4358,0.33740753,0.5310676,0.33333334,0.5522388,0,0.0,0.0,0.0,0.0022175915,0.0,0,0,0.0,0.0,0,0,16.0,0.0,0.0,4669.2307692307695,3942.564102564103,4497.435897435898,4437.948717948719,4260.512820512821,4557.948717948719,4505.641025641026,4203.589743589744,4149.2307692307695,4699.48717948718,4503.589743589744,4311.282051282052,4153.333333333334,4542.564102564103
3534.686,0.26906738,0.5310676,0.33333334,0.5522388,0,0.0,0.0,0.0,0.0034006184,0.0,0,0,0.0,0.0,0,0,48.0,0.0,0.0,4712.820512820514,3946.1538461538466,4513.333333333334,4441.538461538462,4259.48717948718,4556.410256410257,4519.48717948718,4528.205128205129,4275.384615384616,4883.589743589744,4663.076923076924,4354.358974358975,4254.871794871796,4562.564102564103
3534.9363,0.26906738,0.5310676,0.33333334,0.5522388,0,0.0,0.0,0.0,0.0045369975,0.0,0,0,0.0,0.0,0,0,80.0,0.0,3560.0,4705.641025641026,3934.8717948717954,4513.333333333334,4426.666666666667,4247.179487179487,4542.564102564103,4524.615384615385,4382.051282051282,4193.333333333334,4820.000000000001,4605.641025641026,4330.769230769231,4211.794871794872,4579.48717948718
3535.1865,0.22825518,0.5310676,0.33333334,0.5522388,0,0.0,0.0,0.0,0.0078046466,0.0,0,0,0.0,0.0,0,0,112.0,0.0,3560.0,4671.794871794872,3937.435897435898,4472.820512820514,4428.717948717949,4238.461538461539,4538.461538461539,4506.153846153847,3971.2820512820517,3948.717948717949,4225.641025641026,4052.820512820513,4221.025641025642,3921.0256410256416,4516.923076923077
3535.4368,0.22825518,0.5310676,0.33333334,0.5522388,0,0.0,0.0,0.0,0.006181715,0.0,0,0,0.0,0.0,0,0,15.0,0.0,397.0,4689.2307692307695,3937.435897435898,4492.820512820514,4429.2307692307695,4223.589743589744,4528.717948717949,4524.615384615385,4101.025641025642,4059.48717948718,4282.051282051282,4129.74358974359,4235.8974358974365,4036.9230769230776,4555.384615384616
3535.687,0.19973403,0.5310676,0.33333334,0.5522388,0,0.0,0.0,0.0,0.0042636245,0.0,0,0,0.0,0.0,0,0,47.0,0.0,0.0,4737.435897435898,3950.2564102564106,4529.2307692307695,4443.076923076924,4238.974358974359,4538.974358974359,4550.256410256411,4583.589743589744,4373.333333333334,4773.333333333334,4610.256410256411,4334.358974358975,4323.589743589744,4602.564102564103
3535.9373,0.19973403,0.5310676,0.33333334,0.5522388,0,0.0,0.0,0.0,0.0072422246,0.0,0,0,0.0,0.0,0,0,79.0,0.0,397.0,4735.384615384616,3953.333333333334,4532.820512820514,4444.102564102564,4237.435897435898,4537.948717948719,4554.871794871796,4665.641025641026,4374.358974358975,4957.435897435898,4752.307692307693,4365.641025641026,4337.948717948719,4594.871794871796
3536.1873,0.25589436,0.5310676,0.33333334,0.5522388,0,0.0,0.0,0.0,0.0031653543,0.0,0,0,0.0,0.0,0,0,111.0,0.0,397.0,4700.000000000001,3956.410256410257,4528.717948717949,4451.282051282052,4236.410256410257,4538.974358974359,4552.307692307693,4621.538461538462,4287.179487179487,4844.102564102564,4651.282051282052,4340.000000000001,4287.179487179487,4591.282051282052
3536.4375,0.25589436,0.5310676,0.33333334,0.5522388,0,0.0,0.0,0.0,0.0032651443,0.0,0,0,0.0,0.0,0,0,14.0,0.0,8033.0,4725.128205128206,3957.435897435898,4524.102564102564,4450.256410256411,4241.538461538462,4545.641025641026,4544.615384615385,4742.564102564103,4342.051282051282,4983.589743589744,4738.974358974359,4353.846153846154,4313.333333333334,4601.025641025642
3536.6877,0.23618962,0.5310676,0.33333334,0.5522388,0,0.0,0.0,0.0,0.0040954617,0.0,0,0,0.0,0.0,0,0,46.0,0.0,0.0,4669.2307692307695,3952.820512820513,4484.615384615385,4448.717948717949,4237.948717948719,4544.615384615385,4523.076923076924,4379.48717948718,4060.5128205128212,4521.538461538462,4275.384615384616,4268.205128205129,4107.6923076923085,4563.076923076924
3536.938,0.23618962,0.5310676,0.33333334,0.5522388,0,0.0,0.0,0.0,0.0034239609,0.0,0,0,0.0,0.0,0,0,78.0,0.0,8033.0,4643.076923076924,3941.538461538462,4449.2307692307695,4440.512820512821,4232.820512820514,4535.384615384616,4491.282051282052,4143.589743589744,3991.7948717948725,4233.333333333334,3987.692307692308,4209.2307692307695,3992.820512820513,4526.153846153847
3537.1882,0.22159488,0.5310676,0.33333334,0.5522388,0,0.0,0.0,0.0,0.0022018221,0.0,0,0,0.0,0.0,0,0,110.0,0.0,8033.0,4606.666666666667,3949.7435897435903,4447.6923076923085,4446.153846153847,4234.871794871796,4542.564102564103,4487.179487179488,4168.205128205129,4030.7692307692314,4258.461538461539,3962.0512820512827,4209.2307692307695,4009.7435897435903,4518.974358974359
3537.4385,0.22159488,0.5310676,0.33333334,0.5522388,0,0.0,0.0,0.0,0.001994868,0.0,0,0,0.0,0.0,0,0,13.0,0.0,953.0,4573.846153846154,3946.1538461538466,4447.6923076923085,4443.589743589744,4231.282051282052,4536.410256410257,4475.8974358974365,4081.538461538462,4050.2564102564106,4237.948717948719,3925.6410256410263,4201.025641025642,4005.6410256410263,4507.179487179488
3537.6887,0.27393088,0.5310676,0.33333334,0.5522388,0,0.0,0.0,0.0,0.0019170735,0.0,0,0,0.0,0.0,0,0,45.0,0.0,0.0,4597.435897435898,3952.820512820513,4432.820512820514,4446.153846153847,4245.128205128206,4547.6923076923085,4460.000000000001,4113.846153846154,4077.9487179487187,4221.025641025642,3876.410256410257,4196.923076923077,4024.1025641025644,4482.564102564103
3537.939,0.27393088,0.5310676,0.33333334,0.5522388,0,0.0,0.0,0.0,0.0019859583,0.0,0,0,0.0,0.0,0,0,77.0,0.0,948.0,4540.000000000001,3950.7692307692314,4424.102564102564,4443.589743589744,4233.333333333334,4537.948717948719,4447.6923076923085,3821.0256410256416,4020.0000000000005,4082.564102564103,3740.0000000000005,4169.2307692307695,3943.589743589744,4453.846153846154
3538.189,0.33564606,0.5310676,0.33333334,0.5522388,0,0.0,0.0,0.0,0.0037340252,0.0,0,0,0.0,0.0,0,0,109.0,0.0,948.0,4550.256410256411,3958.461538461539,4432.820512820514,4449.743589743591,4239.48717948718,4544.615384615385,4449.2307692307695,3969.7435897435903,4084.615384615385,4092.820512820513,3712.307692307693,4170.256410256411,4013.8461538461543,4436.410256410257
3538.4392,0.33564606,0.5310676,0.33333334,0.5522388,0,0.0,0.0,0.0,0.0048639625,0.0,0,0,0.0,0.0,0,0,12.0,0.0,3512.0,4564.102564102564,3947.692307692308,4422.051282051282,4442.564102564103,4234.358974358975,4535.8974358974365,4433.333333333334,4016.410256410257,4160.000000000001,4286.153846153847,3847.1794871794878,4202.051282051282,4095.8974358974365,4439.48717948718
3538.6895,0.3588114,0.5310676,0.33333334,0.5522388,0,0.0,0.0,0.0,0.0065836306,0.0,0,0,0.0,0.0,0,0,44.0,0.0,0.0,4611.794871794872,3958.461538461539,4468.717948717949,4451.794871794872,4243.589743589744,4542.051282051282,4461.025641025642,4431.282051282052,4423.076923076924,4830.769230769231,4290.256410256411,4300.512820512821,4351.282051282052,4486.666666666667
3538.9397,0.3588114,0.5310676,0.33333334,0.5522388,0,0.0,0.0,0.0,0.003488241,0.0,0,0,0.0,0.0,0,0,76.0,0.0,3496.0,4565.641025641026,3951.2820512820517,4458.974358974359,4445.128205128206,4237.435897435898,4534.871794871796,4459.48717948718,4197.948717948719,4273.333333333334,4521.025641025642,4065.1282051282055,4252.820512820514,4216.923076923077,4488.717948717949
3539.19,0.38844395,0.5310676,0.33333334,0.5522388,0,0.0,0.0,0.0,0.0021047501,0.0,0,0,0.0,0.0,0,0,108.0,0.0,3496.0,4622.564102564103,3952.820512820513,4467.6923076923085,4446.153846153847,4242.564102564103,4543.589743589744,4460.512820512821,4366.666666666667,4376.410256410257,4784.102564102564,4302.051282051282,4303.076923076924,4317.435897435898,4506.666666666667
3539.4402,0.38844395,0.5310676,0.33333334,0.5522388,0,0.0,0.0,0.0,0.0025967075,0.0,0,0,0.0,0.0,0,0,11.0,0.0,405.0,4618.974358974359,3946.1538461538466,4458.974358974359,4442.051282051282,4230.769230769231,4529.743589743591,4457.435897435898,4178.461538461539,4272.820512820514,4585.641025641026,4154.871794871796,4274.358974358975,4215.8974358974365,4505.641025641026
3539.6904,0.33229446,0.5310676,0.33333334,0.5522388,0,0.0,0.0,0.0,0.0026264563,0.0,0,0,0.0,0.0,0,0,43.0,0.0,0.0,4564.102564102564,3945.1282051282055,4451.794871794872,4442.051282051282,4234.358974358975,4533.333333333334,4451.282051282052,3981.538461538462,4156.923076923077,4371.282051282052,3949.7435897435903,4241.538461538462,4132.307692307693,4487.6923076923085
3539.9407,0.33229446,0.5310676,0.33333334,0.5522388,0,0.0,0.0,0.0,0.0034733538,0.0,0,0,0.0,0.0,0,0,75.0,0.0,405.0,4627.6923076923085,3948.717948717949,4475.8974358974365,4450.769230769231,4249.74358974359,4548.717948717949,4455.8974358974365,4237.435897435898,4375.384615384616,4780.512820512821,4338.974358974359,4313.333333333334,4311.282051282052,4502.051282051282
3540.191,0.31499484,0.5310676,0.33333334,0.5522388,0,0.0,0.0,0.0,0.004236139,0.0,0,0,0.0,0.0,0,0,107.0,0.0,405.0,4577.948717948719,3942.564102564103,4438.974358974359,4436.923076923077,4231.794871794872,4529.2307692307695,4441.538461538462,3785.6410256410263,4084.615384615385,4258.974358974359,3885.1282051282055,4225.641025641026,4066.1538461538466,4485.128205128206
3540.441,0.31499484,0.5310676,0.33333334,0.5522388,0,0.0,0.0,0.0,0.0062244455,0.0,0,0,0.0,0.0,0,0,10.0,0.0,8033.0,4527.6923076923085,3947.1794871794878,4437.948717948719,4446.666666666667,4240.512820512821,4543.076923076924,4443.589743589744,3785.6410256410263,4114.871794871796,4192.307692307693,3822.564102564103,4216.923076923077,4057.435897435898,4491.282051282052
3540.6912,0.3361186,0.5310676,0.33333334,0.5522388,0,0.0,0.0,0.0,0.004379995,0.0,0,0,0.0,0.0,0,0,42.0,0.0,0.0,4603.076923076924,3938.9743589743593,4452.820512820514,4438.974358974359,4240.000000000001,4542.051282051282,4445.128205128206,3868.205128205129,4200.000000000001,4396.923076923077,4066.666666666667,4258.974358974359,4164.102564102564,4506.666666666667
3540.9414,0.3361186,0.5310676,0.33333334,0.5522388,0,0.0,0.0,0.0,0.003428838,0.0,0,0,0.0,0.0,0,0,74.0,0.0,8033.0,4601.538461538462,3949.2307692307695,4465.128205128206,4449.743589743591,4252.820512820514,4545.641025641026,4458.461538461539,4041.538461538462,4282.051282051282,4595.384615384616,4233.333333333334,4287.6923076923085,4220.000000000001,4516.923076923077
3541.1917,0.323071,0.5310676,0.33333334,0.5522388,0,0.0,0.0,0.0,0.0030128793,0.0,0,0,0.0,0.0,0,0,106.0,0.0,8033.0,4557.948717948719,3934.8717948717954,4452.307692307693,4441.025641025642,4241.025641025642,4537.435897435898,4451.794871794872,3700.0000000000005,4107.179487179487,4250.256410256411,3954.8717948717954,4234.871794871796,4050.2564102564106,4492.820512820514
3541.442,0.323071,0.5310676,0.33333334,0.5522388,0,0.0,0.0,0.0,0.004009888,0.0,0,0,0.0,0.0,0,0,9.0,0.0,3731.0,4598.974358974359,3945.6410256410263,4473.333333333334,4448.205128205129,4255.8974358974365,4553.846153846154,4457.435897435898,4013.8461538461543,4273.846153846154,4576.410256410257,4282.564102564103,4296.923076923077,4225.128205128206,4531.282051282052
3541.6921,0.3162135,0.5310676,0.33333334,0.5522388,0,0.0,0.0,0.0,0.0035111718,0.0,0,0,0.0,0.0,0,0,41.0,0.0,0.0,4587.6923076923085,3945.1282051282055,4467.6923076923085,4447.6923076923085,4250.256410256411,4548.205128205129,4458.974358974359,3908.205128205129,4183.589743589744,4448.205128205129,4198.974358974359,4278.974358974359,4140.512820512821,4549.743589743591
3541.9424,0.3162135,0.5310676,0.33333334,0.5522388,0,0.0,0.0,0.0,0.003178637,0.0,0,0,0.0,0.0,0,0,73.0,0.0,3822.0,4567.179487179488,3941.0256410256416,4474.871794871796,4442.564102564103,4250.769230769231,4545.641025641026,4465.641025641026,3860.0000000000005,4149.74358974359,4409.2307692307695,4183.589743589744,4274.871794871796,4130.256410256411,4567.179487179488
3542.1926,0.25239894,0.5310676,0.33333334,0.5522388,0,0.0,0.0,0.0,0.0028669077,0.0,0,0,0.0,0.0,0,0,105.0,0.0,910.0,4629.2307692307695,3940.0000000000005,4486.666666666667,4446.153846153847,4258.461538461539,4557.435897435898,4474.871794871796,4111.282051282052,4291.794871794872,4649.743589743591,4426.153846153847,4321.025641025642,4231.282051282052,4583.076923076924
3542.4426,0.25239894,0.5310676,0.33333334,0.5522388,0,0.0,0.0,0.0,0.0029697174,0.0,0,0,0.0,0.0,0,0,8.0,0.0,8033.0,4595.8974358974365,3935.3846153846157,4469.2307692307695,4436.410256410257,4247.179487179487,4542.564102564103,4468.717948717949,3846.1538461538466,4064.1025641025644,4346.153846153847,4161.025641025642,4271.282051282052,4057.9487179487182,4548.717948717949
3542.6929,0.23831688,0.5310676,0.33333334,0.5522388,0,0.0,0.0,0.0,0.0030215902,0.0,0,0,0.0,0.0,0,0,40.0,0.0,0.0,4583.589743589744,3939.48717948718,4468.205128205129,4440.512820512821,4248.205128205129,4547.6923076923085,4464.615384615385,3812.307692307693,4052.820512820513,4293.333333333334,4136.410256410257,4261.538461538462,4016.410256410257,4555.8974358974365
3542.943,0.23831688,0.5310676,0.33333334,0.5522388,0,0.0,0.0,0.0,0.0036558304,0.0,0,0,0.0,0.0,0,0,72.0,0.0,8033.0,4642.564102564103,3936.9230769230776,4482.564102564103,4440.512820512821,4257.435897435898,4553.333333333334,4477.435897435898,4062.0512820512827,4128.717948717949,4562.564102564103,4368.717948717949,4304.615384615385,4127.179487179487,4557.435897435898
3543.1934,0.22497362,0.5310676,0.33333334,0.5522388,0,0.0,0.0,0.0,0.003616252,0.0,0,0,0.0,0.0,0,0,104.0,0.0,3435.0,4617.435897435898,3938.9743589743593,4460.512820512821,4438.974358974359,4245.128205128206,4543.076923076924,4473.333333333334,3847.1794871794878,4016.410256410257,4275.384615384616,4102.564102564103,4257.948717948719,3996.9230769230776,4526.153846153847
3543.4436,0.22497362,0.5310676,0.33333334,0.5522388,0,0.0,0.0,0.0,0.0030838316,0.0,0,0,0.0,0.0,0,0,7.0,0.0,5650.0,4611.282051282052,3937.9487179487182,4467.179487179487,4438.461538461539,4250.769230769231,4541.025641025642,4476.923076923077,3893.8461538461543,4068.717948717949,4332.820512820514,4124.615384615385,4256.923076923077,4028.717948717949,4542.564102564103
3543.6938,0.21022964,0.5310676,0.33333334,0.5522388,0,0.0,0.0,0.0,0.003266274,0.0,0,0,0.0,0.0,0,0,39.0,0.0,0.0,4662.051282051282,3938.9743589743593,4476.923076923077,4437.435897435898,4254.871794871796,4551.282051282052,4473.846153846154,4093.8461538461543,4123.589743589744,4526.153846153847,4330.769230769231,4297.435897435898,4116.410256410257,4542.564102564103
3543.944,0.21022964,0.5310676,0.33333334,0.5522388,0,0.0,0.0,0.0,0.0031338038,0.0,0,0,0.0,0.0,0,0,71.0,0.0,5630.0,4609.2307692307695,3938.461538461539,4473.846153846154,4442.051282051282,4256.923076923077,4551.282051282052,4478.461538461539,3982.564102564103,4093.333333333334,4383.076923076924,4145.128205128206,4262.051282051282,4029.7435897435903,4511.282051282052
3544.1943,0.19464701,0.5310676,0.33333334,0.5522388,0,0.0,0.0,0.0,0.0035801854,0.0,0,0,0.0,0.0,0,0,103.0,0.0,418.0,4571.794871794872,3932.820512820513,4460.000000000001,4433.846153846154,4260.512820512821,4551.794871794872,4461.025641025642,3935.3846153846157,4020.5128205128212,4253.333333333334,4040.0000000000005,4240.512820512821,3993.333333333334,4509.2307692307695
3544.4446,0.19464701,0.5310676,0.33333334,0.5522388,0,0.0,0.0,0.0,0.0040079397,0.0,0,0,0.0,0.0,0,0,6.0,0.0,225.0,4592.820512820514,3935.3846153846157,4460.000000000001,4436.923076923077,4267.6923076923085,4557.948717948719,4467.179487179487,4023.076923076924,4116.410256410257,4384.102564102564,4081.538461538462,4250.769230769231,4039.48717948718,4487.6923076923085
3544.6946,0.15968043,0.5310676,0.33333334,0.5522388,0,0.0,0.0,0.0,0.0035477662,0.0,0,0,0.0,0.0,0,0,38.0,0.0,0.0,4572.820512820514,3942.564102564103,4464.615384615385,4442.564102564103,4260.000000000001,4557.948717948719,4467.6923076923085,4052.307692307693,4074.8717948717954,4365.128205128206,4081.0256410256416,4250.256410256411,4046.666666666667,4505.641025641026
3544.9448,0.15968043,0.5310676,0.33333334,0.5522388,0,0.0,0.0,0.0,0.003228102,0.0,0,0,0.0,0.0,0,0,70.0,0.0,225.0,4577.435897435898,3935.3846153846157,4470.769230769231,4438.461538461539,4251.282051282052,4542.564102564103,4471.282051282052,4169.2307692307695,4155.384615384616,4457.435897435898,4089.7435897435903,4258.461538461539,4101.538461538462,4503.589743589744
3545.195,0.09721942,0.5310676,0.33333334,0.5522388,0,0.0,0.0,0.0,0.0043119662,0.0,0,0,0.0,0.0,0,0,102.0,0.0,8033.0,4663.076923076924,3936.9230769230776,4480.000000000001,4442.051282051282,4253.333333333334,4547.6923076923085,4471.794871794872,4429.743589743591,4287.6923076923085,4713.846153846154,4350.769230769231,4305.128205128206,4231.282051282052,4522.051282051282
3545.4453,0.09721942,0.5310676,0.33333334,0.5522388,0,0.0,0.0,0.0,0.0039556543,0.0,0,0,0.0,0.0,0,0,5.0,0.0,383.0,4625.128205128206,3934.8717948717954,4485.128205128206,4440.512820512821,4248.717948717949,4546.666666666667,4471.282051282052,4426.666666666667,4224.102564102564,4687.6923076923085,4259.48717948718,4290.769230769231,4206.666666666667,4522.051282051282
3545.6956,0.09657773,0.5310676,0.33333334,0.5522388,0,0.0,0.0,0.0,0.0042753974,0.0,0,0,0.0,0.0,0,0,37.0,0.0,0.0,4601.538461538462,3921.538461538462,4456.410256410257,4428.717948717949,4238.974358974359,4537.948717948719,4462.564102564103,4173.846153846154,4090.7692307692314,4436.410256410257,3943.076923076924,4231.282051282052,4062.0512820512827,4481.025641025642
3545.9458,0.09657773,0.5310676,0.33333334,0.5522388,0,0.0,0.0,0.0,0.004105863,0.0,0,0,0.0,0.0,0,0,69.0,0.0,384.0,4621.538461538462,3930.7692307692314,4464.102564102564,4434.358974358975,4263.076923076924,4559.48717948718,4467.179487179487,4350.769230769231,4160.000000000001,4573.333333333334,4082.564102564103,4254.871794871796,4146.153846153847,4479.48717948718
3546.196,0.07521889,0.5310676,0.33333334,0.5522388,0,0.0,0.0,0.0,0.00550745,0.0,0,0,0.0,0.0,0,0,101.0,0.0,854.0,4590.769230769231,3926.666666666667,4458.461538461539,4436.410256410257,4263.589743589744,4555.384615384616,4462.051282051282,4374.358974358975,4235.384615384616,4638.974358974359,4096.410256410257,4257.948717948719,4173.333333333334,4472.307692307693
